SpectraSuite Data File
++++++++++++++++++++++++++++++++++++
Date: Tue Jul 11 16:05:32 CEST 2017
User: IPCE
Dark Spectrum Present: Yes
Reference Spectrum Present: Yes
Number of Sampled Component Spectra: 1
Spectrometers: HR+C0708
Integration Time (usec): 1000 (HR+C0708)
Spectra Averaged: 10 (HR+C0708)
Boxcar Smoothing: 0 (HR+C0708)
Correct for Electrical Dark: No (HR+C0708)
Strobe/Lamp Enabled: No (HR+C0708)
Correct for Detector Non-linearity: No (HR+C0708)
Correct for Stray Light: No (HR+C0708)
Number of Pixels in Processed Spectrum: 2048
>>>>>Begin Processed Spectral Data<<<<<
188.76	-0.132
189.23	-0.071
189.70	-0.393
190.17	0.400
190.64	0.192
191.12	0.560
191.59	-0.010
192.06	0.121
192.53	0.531
193.01	-0.000
193.48	-0.000
193.95	0.057
194.42	0.152
194.90	0.432
195.37	0.052
195.84	0.331
196.31	1.647
196.78	-0.013
197.26	-0.034
197.73	0.311
198.20	0.258
198.67	0.180
199.14	0.010
199.62	0.046
200.09	-0.041
200.56	0.286
201.03	0.139
201.50	0.354
201.97	0.224
202.45	0.306
202.92	0.250
203.39	0.266
203.86	0.416
204.33	0.332
204.80	0.400
205.28	0.411
205.75	0.393
206.22	0.252
206.69	0.468
207.16	0.267
207.63	0.195
208.11	0.414
208.58	0.206
209.05	0.349
209.52	0.437
209.99	0.332
210.46	0.268
210.93	0.211
211.41	0.356
211.88	0.152
212.35	0.268
212.82	0.138
213.29	0.302
213.76	0.245
214.23	0.336
214.70	0.344
215.18	0.229
215.65	0.232
216.12	0.261
216.59	0.338
217.06	0.342
217.53	0.369
218.00	0.413
218.47	0.480
218.94	0.224
219.41	0.350
219.89	0.295
220.36	0.416
220.83	0.366
221.30	0.333
221.77	0.376
222.24	0.366
222.71	0.631
223.18	0.375
223.65	0.449
224.12	0.351
224.59	0.557
225.06	0.508
225.54	0.528
226.01	0.642
226.48	0.682
226.95	0.674
227.42	0.743
227.89	0.784
228.36	0.774
228.83	0.930
229.30	0.902
229.77	0.957
230.24	1.215
230.71	1.060
231.18	1.083
231.65	1.202
232.12	1.322
232.59	1.286
233.06	1.410
233.53	1.394
234.00	1.550
234.47	1.426
234.94	1.535
235.41	1.500
235.88	1.605
236.35	1.557
236.82	1.682
237.29	1.686
237.76	1.689
238.23	1.750
238.70	1.832
239.17	1.840
239.64	1.937
240.11	1.900
240.58	2.046
241.05	2.067
241.52	1.935
241.99	1.949
242.46	1.954
242.93	1.983
243.40	2.082
243.87	2.175
244.34	2.233
244.81	2.069
245.28	2.053
245.75	2.190
246.22	2.227
246.69	2.226
247.16	2.287
247.63	2.247
248.10	2.100
248.57	2.136
249.04	2.149
249.51	2.234
249.98	2.166
250.45	2.259
250.92	2.169
251.39	2.092
251.85	1.996
252.32	2.004
252.79	1.834
253.26	1.743
253.73	1.694
254.20	1.569
254.67	1.481
255.14	1.451
255.61	1.383
256.08	1.334
256.55	1.277
257.02	1.228
257.49	1.186
257.95	1.157
258.42	1.110
258.89	1.079
259.36	1.049
259.83	1.015
260.30	0.988
260.77	0.968
261.24	0.942
261.71	0.923
262.17	0.900
262.64	0.886
263.11	0.865
263.58	0.851
264.05	0.831
264.52	0.816
264.99	0.802
265.46	0.791
265.92	0.780
266.39	0.765
266.86	0.756
267.33	0.736
267.80	0.733
268.27	0.719
268.74	0.707
269.20	0.695
269.67	0.690
270.14	0.682
270.61	0.669
271.08	0.661
271.55	0.656
272.01	0.645
272.48	0.638
272.95	0.635
273.42	0.628
273.89	0.622
274.36	0.613
274.82	0.610
275.29	0.603
275.76	0.600
276.23	0.596
276.70	0.590
277.16	0.588
277.63	0.581
278.10	0.578
278.57	0.575
279.04	0.566
279.50	0.567
279.97	0.564
280.44	0.558
280.91	0.557
281.38	0.555
281.84	0.551
282.31	0.555
282.78	0.555
283.25	0.549
283.72	0.549
284.18	0.548
284.65	0.545
285.12	0.545
285.59	0.545
286.05	0.544
286.52	0.546
286.99	0.546
287.46	0.547
287.92	0.543
288.39	0.545
288.86	0.544
289.33	0.542
289.79	0.542
290.26	0.539
290.73	0.540
291.20	0.533
291.66	0.538
292.13	0.526
292.60	0.524
293.07	0.523
293.53	0.519
294.00	0.514
294.47	0.504
294.93	0.502
295.40	0.495
295.87	0.489
296.34	0.483
296.80	0.475
297.27	0.470
297.74	0.464
298.20	0.454
298.67	0.451
299.14	0.440
299.60	0.427
300.07	0.423
300.54	0.415
301.01	0.405
301.47	0.401
301.94	0.392
302.41	0.388
302.87	0.378
303.34	0.368
303.81	0.363
304.27	0.360
304.74	0.351
305.21	0.347
305.67	0.338
306.14	0.331
306.61	0.327
307.07	0.324
307.54	0.316
308.01	0.311
308.47	0.310
308.94	0.304
309.40	0.300
309.87	0.293
310.34	0.292
310.80	0.288
311.27	0.284
311.74	0.281
312.20	0.275
312.67	0.278
313.13	0.275
313.60	0.272
314.07	0.267
314.53	0.265
315.00	0.267
315.47	0.265
315.93	0.260
316.40	0.261
316.86	0.260
317.33	0.258
317.80	0.252
318.26	0.249
318.73	0.254
319.19	0.248
319.66	0.248
320.13	0.245
320.59	0.246
321.06	0.242
321.52	0.241
321.99	0.242
322.45	0.237
322.92	0.235
323.39	0.233
323.85	0.234
324.32	0.233
324.78	0.230
325.25	0.227
325.71	0.228
326.18	0.225
326.64	0.226
327.11	0.224
327.58	0.224
328.04	0.221
328.51	0.220
328.97	0.220
329.44	0.220
329.90	0.216
330.37	0.215
330.83	0.211
331.30	0.211
331.76	0.207
332.23	0.206
332.69	0.204
333.16	0.203
333.62	0.201
334.09	0.196
334.56	0.196
335.02	0.194
335.49	0.191
335.95	0.190
336.42	0.186
336.88	0.186
337.35	0.183
337.81	0.185
338.28	0.182
338.74	0.181
339.20	0.179
339.67	0.180
340.13	0.177
340.60	0.179
341.06	0.175
341.53	0.174
341.99	0.174
342.46	0.172
342.92	0.173
343.39	0.171
343.85	0.169
344.32	0.168
344.78	0.167
345.25	0.167
345.71	0.169
346.17	0.166
346.64	0.162
347.10	0.164
347.57	0.163
348.03	0.161
348.50	0.160
348.96	0.156
349.43	0.161
349.89	0.157
350.35	0.156
350.82	0.157
351.28	0.154
351.75	0.154
352.21	0.153
352.67	0.148
353.14	0.147
353.60	0.142
354.07	0.139
354.53	0.144
355.00	0.140
355.46	0.137
355.92	0.136
356.39	0.136
356.85	0.131
357.31	0.134
357.78	0.133
358.24	0.127
358.71	0.126
359.17	0.122
359.63	0.120
360.10	0.119
360.56	0.115
361.03	0.110
361.49	0.111
361.95	0.106
362.42	0.102
362.88	0.100
363.34	0.096
363.81	0.096
364.27	0.094
364.73	0.090
365.20	0.087
365.66	0.087
366.12	0.084
366.59	0.084
367.05	0.081
367.51	0.080
367.98	0.076
368.44	0.078
368.90	0.074
369.37	0.077
369.83	0.074
370.29	0.073
370.76	0.075
371.22	0.075
371.68	0.072
372.15	0.072
372.61	0.073
373.07	0.073
373.54	0.070
374.00	0.071
374.46	0.072
374.92	0.069
375.39	0.069
375.85	0.071
376.31	0.069
376.78	0.070
377.24	0.067
377.70	0.068
378.16	0.069
378.63	0.065
379.09	0.067
379.55	0.067
380.01	0.067
380.48	0.067
380.94	0.067
381.40	0.067
381.87	0.064
382.33	0.065
382.79	0.065
383.25	0.062
383.72	0.064
384.18	0.064
384.64	0.064
385.10	0.063
385.56	0.064
386.03	0.064
386.49	0.063
386.95	0.061
387.41	0.062
387.88	0.063
388.34	0.064
388.80	0.062
389.26	0.062
389.72	0.062
390.19	0.064
390.65	0.063
391.11	0.064
391.57	0.062
392.04	0.060
392.50	0.059
392.96	0.060
393.42	0.062
393.88	0.065
394.34	0.061
394.81	0.061
395.27	0.057
395.73	0.058
396.19	0.063
396.65	0.061
397.12	0.059
397.58	0.057
398.04	0.061
398.50	0.061
398.96	0.060
399.42	0.059
399.89	0.059
400.35	0.058
400.81	0.059
401.27	0.062
401.73	0.056
402.19	0.057
402.65	0.058
403.12	0.056
403.58	0.056
404.04	0.055
404.50	0.055
404.96	0.054
405.42	0.055
405.88	0.054
406.34	0.056
406.81	0.056
407.27	0.054
407.73	0.055
408.19	0.053
408.65	0.053
409.11	0.053
409.57	0.052
410.03	0.053
410.49	0.053
410.96	0.054
411.42	0.055
411.88	0.053
412.34	0.050
412.80	0.053
413.26	0.053
413.72	0.050
414.18	0.051
414.64	0.048
415.10	0.050
415.56	0.051
416.02	0.049
416.48	0.047
416.95	0.050
417.41	0.049
417.87	0.048
418.33	0.048
418.79	0.051
419.25	0.051
419.71	0.049
420.17	0.050
420.63	0.048
421.09	0.050
421.55	0.050
422.01	0.047
422.47	0.049
422.93	0.052
423.39	0.051
423.85	0.048
424.31	0.046
424.77	0.048
425.23	0.049
425.69	0.047
426.15	0.048
426.61	0.047
427.07	0.048
427.53	0.049
427.99	0.050
428.45	0.049
428.91	0.047
429.37	0.048
429.83	0.049
430.29	0.050
430.75	0.047
431.21	0.047
431.67	0.050
432.13	0.046
432.59	0.049
433.05	0.047
433.51	0.048
433.97	0.049
434.43	0.046
434.89	0.045
435.35	0.047
435.81	0.046
436.27	0.046
436.73	0.043
437.19	0.046
437.65	0.042
438.11	0.046
438.57	0.048
439.03	0.044
439.48	0.045
439.94	0.042
440.40	0.045
440.86	0.047
441.32	0.046
441.78	0.045
442.24	0.044
442.70	0.044
443.16	0.044
443.62	0.044
444.08	0.045
444.54	0.047
444.99	0.048
445.45	0.046
445.91	0.044
446.37	0.044
446.83	0.044
447.29	0.044
447.75	0.044
448.21	0.045
448.67	0.045
449.12	0.043
449.58	0.043
450.04	0.043
450.50	0.042
450.96	0.041
451.42	0.046
451.88	0.045
452.34	0.044
452.79	0.044
453.25	0.045
453.71	0.043
454.17	0.043
454.63	0.043
455.09	0.043
455.55	0.044
456.00	0.043
456.46	0.043
456.92	0.044
457.38	0.047
457.84	0.043
458.30	0.045
458.75	0.041
459.21	0.045
459.67	0.043
460.13	0.045
460.59	0.045
461.04	0.042
461.50	0.046
461.96	0.043
462.42	0.044
462.88	0.042
463.33	0.044
463.79	0.044
464.25	0.043
464.71	0.046
465.17	0.046
465.62	0.044
466.08	0.044
466.54	0.043
467.00	0.044
467.46	0.045
467.91	0.046
468.37	0.046
468.83	0.044
469.29	0.046
469.74	0.046
470.20	0.046
470.66	0.045
471.12	0.046
471.57	0.046
472.03	0.044
472.49	0.043
472.95	0.044
473.40	0.045
473.86	0.045
474.32	0.045
474.78	0.044
475.23	0.045
475.69	0.043
476.15	0.046
476.60	0.047
477.06	0.044
477.52	0.046
477.98	0.045
478.43	0.046
478.89	0.048
479.35	0.045
479.80	0.047
480.26	0.046
480.72	0.046
481.18	0.046
481.63	0.045
482.09	0.046
482.55	0.046
483.00	0.046
483.46	0.047
483.92	0.045
484.37	0.047
484.83	0.047
485.29	0.048
485.74	0.048
486.20	0.047
486.66	0.048
487.11	0.047
487.57	0.048
488.03	0.049
488.48	0.046
488.94	0.047
489.40	0.047
489.85	0.045
490.31	0.046
490.77	0.050
491.22	0.045
491.68	0.047
492.13	0.049
492.59	0.046
493.05	0.046
493.50	0.046
493.96	0.045
494.42	0.048
494.87	0.047
495.33	0.045
495.78	0.044
496.24	0.047
496.70	0.047
497.15	0.047
497.61	0.045
498.06	0.047
498.52	0.048
498.98	0.049
499.43	0.046
499.89	0.044
500.34	0.047
500.80	0.046
501.25	0.046
501.71	0.048
502.17	0.047
502.62	0.047
503.08	0.044
503.53	0.048
503.99	0.047
504.44	0.045
504.90	0.044
505.36	0.045
505.81	0.045
506.27	0.043
506.72	0.045
507.18	0.047
507.63	0.048
508.09	0.047
508.54	0.047
509.00	0.046
509.45	0.047
509.91	0.048
510.36	0.048
510.82	0.047
511.27	0.047
511.73	0.042
512.19	0.045
512.64	0.048
513.10	0.047
513.55	0.046
514.01	0.044
514.46	0.046
514.92	0.045
515.37	0.046
515.83	0.043
516.28	0.048
516.73	0.045
517.19	0.044
517.64	0.044
518.10	0.045
518.55	0.047
519.01	0.043
519.46	0.045
519.92	0.045
520.37	0.046
520.83	0.047
521.28	0.046
521.74	0.045
522.19	0.046
522.65	0.046
523.10	0.045
523.55	0.044
524.01	0.046
524.46	0.047
524.92	0.047
525.37	0.047
525.83	0.045
526.28	0.046
526.73	0.047
527.19	0.046
527.64	0.050
528.10	0.046
528.55	0.047
529.01	0.046
529.46	0.049
529.91	0.048
530.37	0.046
530.82	0.048
531.28	0.048
531.73	0.046
532.18	0.048
532.64	0.048
533.09	0.048
533.54	0.048
534.00	0.046
534.45	0.051
534.91	0.047
535.36	0.049
535.81	0.047
536.27	0.051
536.72	0.046
537.17	0.051
537.63	0.051
538.08	0.052
538.54	0.050
538.99	0.050
539.44	0.054
539.90	0.051
540.35	0.048
540.80	0.050
541.26	0.050
541.71	0.051
542.16	0.052
542.62	0.053
543.07	0.054
543.52	0.052
543.98	0.053
544.43	0.054
544.88	0.054
545.34	0.055
545.79	0.056
546.24	0.056
546.69	0.054
547.15	0.053
547.60	0.059
548.05	0.055
548.51	0.057
548.96	0.058
549.41	0.059
549.86	0.058
550.32	0.060
550.77	0.059
551.22	0.061
551.68	0.060
552.13	0.059
552.58	0.061
553.03	0.061
553.49	0.063
553.94	0.063
554.39	0.063
554.84	0.065
555.30	0.063
555.75	0.064
556.20	0.066
556.65	0.064
557.11	0.067
557.56	0.068
558.01	0.067
558.46	0.069
558.92	0.068
559.37	0.068
559.82	0.070
560.27	0.071
560.72	0.070
561.18	0.069
561.63	0.071
562.08	0.071
562.53	0.072
562.99	0.072
563.44	0.075
563.89	0.073
564.34	0.075
564.79	0.076
565.25	0.077
565.70	0.077
566.15	0.078
566.60	0.079
567.05	0.081
567.50	0.079
567.96	0.081
568.41	0.083
568.86	0.081
569.31	0.083
569.76	0.084
570.21	0.084
570.67	0.083
571.12	0.085
571.57	0.086
572.02	0.088
572.47	0.088
572.92	0.088
573.37	0.088
573.83	0.090
574.28	0.091
574.73	0.092
575.18	0.091
575.63	0.094
576.08	0.094
576.53	0.095
576.98	0.095
577.44	0.097
577.89	0.097
578.34	0.098
578.79	0.103
579.24	0.101
579.69	0.105
580.14	0.104
580.59	0.103
581.04	0.105
581.49	0.108
581.95	0.109
582.40	0.111
582.85	0.109
583.30	0.113
583.75	0.113
584.20	0.115
584.65	0.115
585.10	0.115
585.55	0.117
586.00	0.122
586.45	0.124
586.90	0.123
587.35	0.123
587.80	0.127
588.25	0.127
588.71	0.128
589.16	0.128
589.61	0.133
590.06	0.135
590.51	0.135
590.96	0.136
591.41	0.139
591.86	0.144
592.31	0.145
592.76	0.145
593.21	0.145
593.66	0.148
594.11	0.151
594.56	0.153
595.01	0.153
595.46	0.157
595.91	0.156
596.36	0.158
596.81	0.161
597.26	0.163
597.71	0.165
598.16	0.167
598.61	0.170
599.06	0.170
599.51	0.170
599.96	0.175
600.41	0.175
600.86	0.180
601.31	0.180
601.76	0.182
602.21	0.183
602.65	0.184
603.10	0.185
603.55	0.189
604.00	0.190
604.45	0.190
604.90	0.194
605.35	0.195
605.80	0.195
606.25	0.195
606.70	0.201
607.15	0.202
607.60	0.203
608.05	0.203
608.50	0.205
608.95	0.208
609.39	0.208
609.84	0.209
610.29	0.209
610.74	0.210
611.19	0.211
611.64	0.213
612.09	0.214
612.54	0.215
612.99	0.217
613.44	0.217
613.88	0.221
614.33	0.218
614.78	0.221
615.23	0.218
615.68	0.223
616.13	0.223
616.58	0.222
617.03	0.222
617.47	0.223
617.92	0.227
618.37	0.226
618.82	0.225
619.27	0.226
619.72	0.226
620.17	0.229
620.61	0.228
621.06	0.230
621.51	0.230
621.96	0.230
622.41	0.230
622.86	0.230
623.30	0.232
623.75	0.232
624.20	0.235
624.65	0.236
625.10	0.236
625.54	0.236
625.99	0.237
626.44	0.238
626.89	0.240
627.34	0.240
627.78	0.241
628.23	0.242
628.68	0.243
629.13	0.246
629.58	0.246
630.02	0.248
630.47	0.251
630.92	0.251
631.37	0.251
631.81	0.253
632.26	0.254
632.71	0.258
633.16	0.260
633.61	0.261
634.05	0.263
634.50	0.265
634.95	0.268
635.40	0.268
635.84	0.270
636.29	0.272
636.74	0.277
637.18	0.276
637.63	0.278
638.08	0.281
638.53	0.284
638.97	0.288
639.42	0.290
639.87	0.291
640.32	0.294
640.76	0.299
641.21	0.301
641.66	0.303
642.10	0.306
642.55	0.308
643.00	0.311
643.44	0.313
643.89	0.315
644.34	0.321
644.79	0.322
645.23	0.323
645.68	0.330
646.13	0.332
646.57	0.334
647.02	0.339
647.47	0.339
647.91	0.338
648.36	0.346
648.81	0.349
649.25	0.353
649.70	0.353
650.15	0.358
650.59	0.359
651.04	0.364
651.48	0.363
651.93	0.365
652.38	0.368
652.82	0.374
653.27	0.374
653.72	0.379
654.16	0.378
654.61	0.380
655.06	0.386
655.50	0.387
655.95	0.386
656.39	0.389
656.84	0.391
657.29	0.393
657.73	0.394
658.18	0.396
658.62	0.399
659.07	0.398
659.52	0.401
659.96	0.402
660.41	0.403
660.85	0.402
661.30	0.405
661.74	0.408
662.19	0.407
662.64	0.405
663.08	0.407
663.53	0.411
663.97	0.408
664.42	0.407
664.86	0.408
665.31	0.405
665.75	0.408
666.20	0.405
666.65	0.406
667.09	0.403
667.54	0.402
667.98	0.400
668.43	0.398
668.87	0.395
669.32	0.391
669.76	0.392
670.21	0.387
670.65	0.381
671.10	0.381
671.54	0.375
671.99	0.370
672.43	0.369
672.88	0.362
673.32	0.356
673.77	0.349
674.21	0.344
674.66	0.339
675.10	0.333
675.55	0.325
675.99	0.321
676.44	0.314
676.88	0.305
677.33	0.298
677.77	0.289
678.22	0.285
678.66	0.278
679.11	0.268
679.55	0.262
679.99	0.255
680.44	0.247
680.88	0.241
681.33	0.234
681.77	0.227
682.22	0.219
682.66	0.208
683.11	0.202
683.55	0.197
683.99	0.190
684.44	0.182
684.88	0.178
685.33	0.166
685.77	0.162
686.21	0.161
686.66	0.151
687.10	0.144
687.55	0.138
687.99	0.136
688.44	0.129
688.88	0.124
689.32	0.121
689.77	0.114
690.21	0.110
690.65	0.108
691.10	0.101
691.54	0.099
691.99	0.097
692.43	0.091
692.87	0.090
693.32	0.084
693.76	0.081
694.20	0.079
694.65	0.077
695.09	0.074
695.53	0.071
695.98	0.069
696.42	0.065
696.86	0.063
697.31	0.062
697.75	0.058
698.19	0.056
698.64	0.054
699.08	0.054
699.52	0.050
699.97	0.051
700.41	0.050
700.85	0.047
701.30	0.046
701.74	0.042
702.18	0.043
702.63	0.041
703.07	0.042
703.51	0.041
703.96	0.040
704.40	0.039
704.84	0.037
705.28	0.040
705.73	0.036
706.17	0.035
706.61	0.035
707.06	0.033
707.50	0.033
707.94	0.033
708.38	0.031
708.83	0.032
709.27	0.029
709.71	0.030
710.15	0.029
710.60	0.029
711.04	0.029
711.48	0.027
711.92	0.031
712.37	0.028
712.81	0.028
713.25	0.027
713.69	0.026
714.13	0.025
714.58	0.026
715.02	0.025
715.46	0.024
715.90	0.025
716.35	0.023
716.79	0.028
717.23	0.024
717.67	0.024
718.11	0.023
718.56	0.025
719.00	0.025
719.44	0.026
719.88	0.026
720.32	0.025
720.76	0.023
721.21	0.028
721.65	0.026
722.09	0.023
722.53	0.026
722.97	0.025
723.41	0.025
723.86	0.024
724.30	0.023
724.74	0.023
725.18	0.025
725.62	0.023
726.06	0.026
726.50	0.023
726.95	0.025
727.39	0.026
727.83	0.024
728.27	0.023
728.71	0.024
729.15	0.023
729.59	0.024
730.03	0.027
730.48	0.025
730.92	0.026
731.36	0.025
731.80	0.025
732.24	0.024
732.68	0.026
733.12	0.026
733.56	0.026
734.00	0.028
734.44	0.029
734.89	0.027
735.33	0.028
735.77	0.028
736.21	0.029
736.65	0.030
737.09	0.028
737.53	0.027
737.97	0.030
738.41	0.028
738.85	0.028
739.29	0.027
739.73	0.028
740.17	0.027
740.61	0.032
741.05	0.029
741.49	0.027
741.93	0.027
742.37	0.025
742.81	0.026
743.26	0.028
743.70	0.027
744.14	0.029
744.58	0.026
745.02	0.029
745.46	0.028
745.90	0.027
746.34	0.028
746.78	0.030
747.22	0.028
747.66	0.028
748.10	0.029
748.54	0.028
748.98	0.025
749.42	0.029
749.86	0.029
750.29	0.030
750.73	0.027
751.17	0.024
751.61	0.029
752.05	0.027
752.49	0.026
752.93	0.031
753.37	0.028
753.81	0.028
754.25	0.027
754.69	0.029
755.13	0.031
755.57	0.027
756.01	0.028
756.45	0.027
756.89	0.027
757.33	0.030
757.77	0.029
758.21	0.029
758.64	0.030
759.08	0.030
759.52	0.026
759.96	0.029
760.40	0.027
760.84	0.027
761.28	0.029
761.72	0.026
762.16	0.026
762.60	0.028
763.03	0.028
763.47	0.025
763.91	0.024
764.35	0.025
764.79	0.028
765.23	0.024
765.67	0.025
766.11	0.029
766.54	0.029
766.98	0.025
767.42	0.027
767.86	0.029
768.30	0.031
768.74	0.028
769.17	0.029
769.61	0.028
770.05	0.026
770.49	0.026
770.93	0.026
771.37	0.027
771.80	0.029
772.24	0.029
772.68	0.026
773.12	0.027
773.56	0.027
774.00	0.028
774.43	0.026
774.87	0.026
775.31	0.028
775.75	0.026
776.19	0.027
776.62	0.028
777.06	0.027
777.50	0.027
777.94	0.030
778.37	0.028
778.81	0.029
779.25	0.028
779.69	0.027
780.13	0.026
780.56	0.026
781.00	0.029
781.44	0.029
781.88	0.030
782.31	0.028
782.75	0.028
783.19	0.031
783.63	0.031
784.06	0.023
784.50	0.029
784.94	0.028
785.37	0.028
785.81	0.028
786.25	0.026
786.69	0.026
787.12	0.028
787.56	0.030
788.00	0.026
788.43	0.023
788.87	0.026
789.31	0.024
789.75	0.026
790.18	0.026
790.62	0.026
791.06	0.028
791.49	0.029
791.93	0.027
792.37	0.025
792.80	0.028
793.24	0.027
793.68	0.028
794.11	0.030
794.55	0.024
794.99	0.029
795.42	0.025
795.86	0.025
796.30	0.026
796.73	0.025
797.17	0.027
797.61	0.024
798.04	0.023
798.48	0.025
798.91	0.023
799.35	0.028
799.79	0.026
800.22	0.025
800.66	0.020
801.10	0.029
801.53	0.026
801.97	0.025
802.40	0.028
802.84	0.027
803.28	0.026
803.71	0.025
804.15	0.024
804.58	0.026
805.02	0.025
805.46	0.025
805.89	0.026
806.33	0.027
806.76	0.027
807.20	0.028
807.63	0.028
808.07	0.028
808.51	0.025
808.94	0.027
809.38	0.032
809.81	0.025
810.25	0.026
810.68	0.029
811.12	0.028
811.55	0.024
811.99	0.031
812.42	0.028
812.86	0.025
813.29	0.024
813.73	0.024
814.17	0.028
814.60	0.025
815.04	0.026
815.47	0.025
815.91	0.028
816.34	0.027
816.78	0.028
817.21	0.022
817.65	0.024
818.08	0.029
818.52	0.025
818.95	0.031
819.39	0.033
819.82	0.026
820.25	0.030
820.69	0.027
821.12	0.025
821.56	0.029
821.99	0.024
822.43	0.030
822.86	0.025
823.30	0.025
823.73	0.022
824.17	0.029
824.60	0.025
825.04	0.031
825.47	0.028
825.90	0.032
826.34	0.026
826.77	0.030
827.21	0.027
827.64	0.029
828.08	0.032
828.51	0.031
828.94	0.026
829.38	0.031
829.81	0.032
830.25	0.025
830.68	0.032
831.11	0.036
831.55	0.033
831.98	0.035
832.42	0.036
832.85	0.034
833.28	0.030
833.72	0.033
834.15	0.037
834.58	0.032
835.02	0.032
835.45	0.035
835.88	0.034
836.32	0.030
836.75	0.032
837.19	0.034
837.62	0.036
838.05	0.040
838.49	0.035
838.92	0.032
839.35	0.038
839.79	0.033
840.22	0.035
840.65	0.038
841.09	0.032
841.52	0.035
841.95	0.040
842.39	0.033
842.82	0.033
843.25	0.036
843.68	0.034
844.12	0.033
844.55	0.034
844.98	0.035
845.42	0.038
845.85	0.039
846.28	0.038
846.71	0.040
847.15	0.036
847.58	0.039
848.01	0.033
848.45	0.034
848.88	0.039
849.31	0.035
849.74	0.036
850.18	0.041
850.61	0.037
851.04	0.036
851.47	0.042
851.91	0.041
852.34	0.034
852.77	0.038
853.20	0.038
853.64	0.037
854.07	0.037
854.50	0.040
854.93	0.041
855.36	0.039
855.80	0.034
856.23	0.044
856.66	0.042
857.09	0.038
857.52	0.038
857.96	0.039
858.39	0.038
858.82	0.039
859.25	0.036
859.68	0.038
860.12	0.037
860.55	0.037
860.98	0.040
861.41	0.042
861.84	0.035
862.27	0.041
862.71	0.042
863.14	0.040
863.57	0.045
864.00	0.037
864.43	0.042
864.86	0.042
865.30	0.037
865.73	0.042
866.16	0.039
866.59	0.038
867.02	0.041
867.45	0.043
867.88	0.040
868.31	0.039
868.75	0.038
869.18	0.050
869.61	0.038
870.04	0.039
870.47	0.041
870.90	0.040
871.33	0.037
871.76	0.048
872.19	0.043
872.62	0.044
873.06	0.045
873.49	0.045
873.92	0.046
874.35	0.043
874.78	0.042
875.21	0.046
875.64	0.047
876.07	0.042
876.50	0.048
876.93	0.043
877.36	0.046
877.79	0.049
878.22	0.046
878.65	0.049
879.08	0.050
879.51	0.043
879.94	0.042
880.37	0.051
880.80	0.044
881.23	0.048
881.67	0.049
882.10	0.040
882.53	0.046
882.96	0.040
883.39	0.042
883.82	0.047
884.25	0.055
884.68	0.053
885.11	0.045
885.54	0.050
885.97	0.053
886.39	0.052
886.82	0.043
887.25	0.056
887.68	0.047
888.11	0.047
888.54	0.051
888.97	0.048
889.40	0.046
889.83	0.053
890.26	0.049
890.69	0.054
891.12	0.053
891.55	0.051
891.98	0.048
892.41	0.056
892.84	0.050
893.27	0.049
893.70	0.049
894.13	0.053
894.56	0.056
894.98	0.050
895.41	0.046
895.84	0.053
896.27	0.053
896.70	0.052
897.13	0.060
897.56	0.061
897.99	0.056
898.42	0.054
898.85	0.058
899.27	0.053
899.70	0.056
900.13	0.060
900.56	0.056
900.99	0.053
901.42	0.055
901.85	0.055
902.28	0.052
902.70	0.061
903.13	0.050
903.56	0.054
903.99	0.056
904.42	0.052
904.85	0.050
905.27	0.056
905.70	0.056
906.13	0.060
906.56	0.061
906.99	0.057
907.42	0.058
907.84	0.052
908.27	0.059
908.70	0.054
909.13	0.057
909.56	0.052
909.98	0.057
910.41	0.056
910.84	0.055
911.27	0.056
911.70	0.053
912.12	0.057
912.55	0.059
912.98	0.056
913.41	0.054
913.84	0.054
914.26	0.054
914.69	0.058
915.12	0.058
915.55	0.056
915.97	0.060
916.40	0.056
916.83	0.056
917.26	0.054
917.68	0.058
918.11	0.057
918.54	0.057
918.97	0.056
919.39	0.059
919.82	0.056
920.25	0.057
920.67	0.057
921.10	0.054
921.53	0.060
921.96	0.059
922.38	0.062
922.81	0.065
923.24	0.062
923.66	0.063
924.09	0.059
924.52	0.064
924.94	0.064
925.37	0.063
925.80	0.066
926.22	0.066
926.65	0.068
927.08	0.065
927.50	0.069
927.93	0.071
928.36	0.066
928.78	0.067
929.21	0.074
929.64	0.080
930.06	0.074
930.49	0.073
930.92	0.073
931.34	0.077
931.77	0.074
932.20	0.079
932.62	0.078
933.05	0.083
933.47	0.083
933.90	0.085
934.33	0.081
934.75	0.082
935.18	0.084
935.61	0.088
936.03	0.091
936.46	0.084
936.88	0.089
937.31	0.096
937.73	0.096
938.16	0.088
938.59	0.097
939.01	0.102
939.44	0.099
939.86	0.099
940.29	0.104
940.71	0.104
941.14	0.103
941.57	0.104
941.99	0.118
942.42	0.115
942.84	0.113
943.27	0.114
943.69	0.120
944.12	0.118
944.54	0.118
944.97	0.125
945.39	0.129
945.82	0.122
946.24	0.133
946.67	0.137
947.09	0.139
947.52	0.130
947.94	0.138
948.37	0.140
948.79	0.138
949.22	0.144
949.64	0.150
950.07	0.152
950.49	0.148
950.92	0.163
951.34	0.157
951.77	0.162
952.19	0.167
952.62	0.162
953.04	0.173
953.47	0.170
953.89	0.170
954.32	0.180
954.74	0.181
955.17	0.188
955.59	0.188
956.01	0.187
956.44	0.197
956.86	0.198
957.29	0.198
957.71	0.203
958.14	0.201
958.56	0.202
958.98	0.205
959.41	0.212
959.83	0.210
960.26	0.215
960.68	0.215
961.10	0.215
961.53	0.222
961.95	0.217
962.38	0.217
962.80	0.217
963.22	0.214
963.65	0.215
964.07	0.220
964.50	0.218
964.92	0.221
965.34	0.214
965.77	0.228
966.19	0.228
966.61	0.223
967.04	0.224
967.46	0.220
967.88	0.218
968.31	0.228
968.73	0.229
969.15	0.226
969.58	0.226
970.00	0.228
970.42	0.225
970.85	0.231
971.27	0.232
971.69	0.233
972.12	0.230
972.54	0.233
972.96	0.233
973.39	0.227
973.81	0.229
974.23	0.228
974.65	0.231
975.08	0.226
975.50	0.232
975.92	0.232
976.35	0.231
976.77	0.230
977.19	0.233
977.61	0.235
978.04	0.239
978.46	0.231
978.88	0.233
979.30	0.234
979.73	0.230
980.15	0.235
980.57	0.234
980.99	0.234
981.42	0.234
981.84	0.231
982.26	0.231
982.68	0.231
983.11	0.230
983.53	0.236
983.95	0.233
984.37	0.224
984.79	0.230
985.22	0.226
985.64	0.223
986.06	0.229
986.48	0.222
986.90	0.224
987.33	0.227
987.75	0.230
988.17	0.232
988.59	0.221
989.01	0.223
989.43	0.225
989.86	0.234
990.28	0.224
990.70	0.226
991.12	0.221
991.54	0.223
991.96	0.228
992.39	0.222
992.81	0.220
993.23	0.215
993.65	0.211
994.07	0.215
994.49	0.216
994.91	0.208
995.34	0.210
995.76	0.209
996.18	0.210
996.60	0.221
997.02	0.215
997.44	0.208
997.86	0.213
998.28	0.207
998.70	0.216
999.12	0.207
999.55	0.209
999.97	0.206
1000.39	0.203
1000.81	0.207
1001.23	0.202
1001.65	0.200
1002.07	0.206
1002.49	0.199
1002.91	0.207
1003.33	0.208
1003.75	0.201
1004.17	0.196
1004.59	0.201
1005.01	0.204
1005.43	0.194
1005.85	0.195
1006.28	0.196
1006.70	0.198
1007.12	0.198
1007.54	0.193
1007.96	0.184
1008.38	0.188
1008.80	0.186
1009.22	0.185
1009.64	0.181
1010.06	0.187
1010.48	0.183
1010.90	0.183
1011.32	0.178
1011.74	0.176
1012.16	0.174
1012.58	0.180
1013.00	0.171
1013.42	0.183
1013.84	0.170
1014.26	0.164
1014.67	0.177
1015.09	0.182
1015.51	0.176
1015.93	0.177
1016.35	0.184
1016.77	0.176
1017.19	0.177
1017.61	0.165
1018.03	0.173
1018.45	0.166
1018.87	0.151
1019.29	0.163
1019.71	0.169
1020.13	0.160
1020.55	0.154
1020.97	0.161
1021.38	0.150
1021.80	0.161
1022.22	0.167
1022.64	0.145
1023.06	0.138
1023.48	0.146
1023.90	0.150
1024.32	0.161
1024.74	0.153
1025.15	0.164
1025.57	0.147
1025.99	0.162
1026.41	0.145
1026.83	0.141
1027.25	0.154
1027.67	0.146
1028.08	0.145
1028.50	0.145
1028.92	0.147
1029.34	0.144
1029.76	0.133
1030.18	0.142
1030.60	0.137
1031.01	0.140
1031.43	0.132
1031.85	0.125
1032.27	0.135
1032.69	0.125
1033.10	0.120
1033.52	0.124
1033.94	0.127
1034.36	0.138
1034.78	0.132
1035.19	0.120
1035.61	0.133
1036.03	0.128
1036.45	0.119
1036.87	0.132
1037.28	0.112
1037.70	0.108
1038.12	0.138
1038.54	0.124
1038.95	0.106
1039.37	0.135
1039.79	0.108
1040.21	0.116
1040.62	0.133
1041.04	0.117
1041.46	0.094
1041.88	0.104
1042.29	0.106
1042.71	0.122
1043.13	0.082
1043.55	0.103
1043.96	0.129
1044.38	0.102
1044.80	0.105
1045.21	0.102
1045.63	0.100
1046.05	0.099
1046.47	0.095
1046.88	0.110
1047.30	0.097
1047.72	0.109
1048.13	0.098
1048.55	0.101
1048.97	0.102
1049.38	0.109
1049.80	0.104
1050.22	0.088
1050.63	0.099
1051.05	0.084
1051.47	0.085
1051.88	0.111
1052.30	0.071
1052.72	0.099
1053.13	0.132
1053.55	0.137
1053.97	0.147
1054.38	0.079
1054.80	0.109
1055.21	0.099
1055.63	0.079
1056.05	0.075
1056.46	0.106
1056.88	0.091
1057.29	0.089
1057.71	0.110
1058.13	0.077
1058.54	0.100
1058.96	0.100
1059.37	0.103
1059.79	0.095
1060.21	0.099
1060.62	0.076
1061.04	0.126
1061.45	0.048
1061.87	0.083
1062.28	0.086
1062.70	0.108
1063.12	0.082
1063.53	0.115
1063.95	0.125
1064.36	0.117
1064.78	0.106
1065.19	0.109
1065.61	0.115
1066.02	0.059
1066.44	-0.002
1066.85	0.115
1067.27	0.191
1067.68	0.183
1068.10	0.129
1068.51	0.097
1068.93	0.153
1069.35	0.075
1069.76	0.067
1070.17	0.103
1070.59	0.094
1071.00	0.089
1071.42	0.089
1071.83	0.226
1072.25	0.143
1072.66	0.141
1073.08	0.164
1073.49	0.136
1073.91	0.244
1074.32	0.092
1074.74	0.161
1075.15	0.162
1075.57	0.203
1075.98	0.230
1076.40	0.056
1076.81	0.031
1077.22	0.229
1077.64	0.272
1078.05	0.233
1078.47	0.016
1078.88	0.195
1079.30	0.189
1079.71	0.250
1080.12	0.142
1080.54	0.031
1080.95	0.081
1081.37	0.186
1081.78	0.185
1082.19	0.201
1082.61	0.291
1083.02	0.094
1083.44	0.076
1083.85	0.212
1084.26	0.119
1084.68	0.181
1085.09	0.053
1085.50	0.170
1085.92	0.125
1086.33	0.158
1086.74	0.036
1087.16	0.080
1087.57	0.509
1087.98	0.382
1088.40	0.542
1088.81	0.276
1089.22	0.173
1089.64	0.274
1090.05	-0.006
1090.46	0.052
1090.88	0.249
1091.29	0.178
1091.70	0.763
1092.12	0.417
1092.53	0.446
1092.94	1.003
1093.36	0.184
1093.77	0.293
1094.18	0.479
1094.59	0.113
1095.01	0.142
1095.42	0.406
1095.83	0.352
1096.25	0.358
1096.66	0.372
1097.07	0.095
1097.48	0.754
1097.90	-0.015
1098.31	0.891
1098.72	-0.000
1099.13	-0.167
>>>>>End Processed Spectral Data<<<<<
