SpectraSuite Data File
++++++++++++++++++++++++++++++++++++
Date: Tue Jul 11 15:32:32 CEST 2017
User: IPCE
Dark Spectrum Present: Yes
Reference Spectrum Present: Yes
Number of Sampled Component Spectra: 1
Spectrometers: HR+C0708
Integration Time (usec): 1000 (HR+C0708)
Spectra Averaged: 10 (HR+C0708)
Boxcar Smoothing: 0 (HR+C0708)
Correct for Electrical Dark: No (HR+C0708)
Strobe/Lamp Enabled: No (HR+C0708)
Correct for Detector Non-linearity: No (HR+C0708)
Correct for Stray Light: No (HR+C0708)
Number of Pixels in Processed Spectrum: 2048
>>>>>Begin Processed Spectral Data<<<<<
188.76	0.022
189.23	-0.315
189.70	-0.000
190.17	0.099
190.64	0.845
191.12	0.668
191.59	-0.024
192.06	0.173
192.53	0.407
193.01	0.308
193.48	-0.000
193.95	0.384
194.42	0.168
194.90	-0.000
195.37	-0.000
195.84	0.006
196.31	0.869
196.78	0.250
197.26	0.051
197.73	0.192
198.20	0.038
198.67	0.117
199.14	-0.006
199.62	0.011
200.09	0.579
200.56	0.400
201.03	0.218
201.50	0.519
201.97	0.331
202.45	0.656
202.92	0.472
203.39	0.505
203.86	0.742
204.33	0.480
204.80	0.383
205.28	0.956
205.75	0.416
206.22	0.260
206.69	0.644
207.16	0.240
207.63	0.352
208.11	0.676
208.58	0.339
209.05	0.562
209.52	0.883
209.99	0.499
210.46	0.587
210.93	0.349
211.41	0.475
211.88	0.540
212.35	0.394
212.82	0.479
213.29	0.803
213.76	0.471
214.23	0.546
214.70	0.428
215.18	0.421
215.65	0.530
216.12	0.404
216.59	0.350
217.06	0.797
217.53	0.371
218.00	0.499
218.47	1.015
218.94	0.374
219.41	0.379
219.89	0.605
220.36	0.574
220.83	0.674
221.30	0.536
221.77	0.426
222.24	0.901
222.71	0.634
223.18	0.433
223.65	0.752
224.12	0.717
224.59	0.568
225.06	0.673
225.54	0.547
226.01	0.858
226.48	0.790
226.95	0.688
227.42	1.297
227.89	0.858
228.36	0.971
228.83	1.142
229.30	1.090
229.77	1.137
230.24	1.204
230.71	1.328
231.18	1.232
231.65	1.490
232.12	1.460
232.59	1.545
233.06	1.568
233.53	1.615
234.00	1.588
234.47	1.664
234.94	1.738
235.41	1.785
235.88	1.959
236.35	1.750
236.82	1.882
237.29	1.852
237.76	2.091
238.23	1.919
238.70	1.931
239.17	1.985
239.64	1.955
240.11	2.057
240.58	2.084
241.05	2.406
241.52	2.248
241.99	2.193
242.46	2.050
242.93	2.420
243.40	2.181
243.87	2.360
244.34	2.419
244.81	2.211
245.28	2.205
245.75	2.463
246.22	2.381
246.69	2.352
247.16	2.438
247.63	2.421
248.10	2.489
248.57	2.306
249.04	2.300
249.51	2.802
249.98	2.235
250.45	2.642
250.92	2.523
251.39	2.451
251.85	2.427
252.32	2.660
252.79	2.367
253.26	2.551
253.73	2.546
254.20	2.311
254.67	2.620
255.14	2.341
255.61	2.330
256.08	2.737
256.55	2.406
257.02	2.436
257.49	2.790
257.95	2.689
258.42	2.763
258.89	2.521
259.36	2.582
259.83	2.860
260.30	2.603
260.77	2.748
261.24	2.679
261.71	2.675
262.17	2.551
262.64	2.678
263.11	2.587
263.58	2.841
264.05	2.714
264.52	2.787
264.99	2.693
265.46	2.685
265.92	2.773
266.39	2.933
266.86	2.674
267.33	2.823
267.80	2.810
268.27	2.529
268.74	2.700
269.20	2.672
269.67	2.577
270.14	2.809
270.61	2.466
271.08	2.530
271.55	2.848
272.01	2.465
272.48	2.517
272.95	3.052
273.42	2.485
273.89	2.555
274.36	2.578
274.82	2.529
275.29	2.535
275.76	2.469
276.23	2.459
276.70	2.635
277.16	2.382
277.63	2.412
278.10	2.743
278.57	2.453
279.04	2.520
279.50	2.570
279.97	2.543
280.44	2.575
280.91	2.441
281.38	2.486
281.84	2.790
282.31	2.593
282.78	2.572
283.25	2.898
283.72	2.507
284.18	2.482
284.65	2.585
285.12	2.582
285.59	2.531
286.05	2.583
286.52	2.506
286.99	2.659
287.46	2.515
287.92	2.418
288.39	2.737
288.86	2.476
289.33	2.538
289.79	2.513
290.26	2.498
290.73	2.507
291.20	2.533
291.66	2.610
292.13	2.677
292.60	2.428
293.07	2.531
293.53	2.709
294.00	2.423
294.47	2.557
294.93	2.678
295.40	2.540
295.87	2.431
296.34	2.438
296.80	2.360
297.27	2.567
297.74	2.394
298.20	2.601
298.67	2.600
299.14	2.544
299.60	2.447
300.07	2.524
300.54	2.453
301.01	2.437
301.47	2.420
301.94	2.452
302.41	2.310
302.87	2.292
303.34	2.387
303.81	2.584
304.27	2.328
304.74	2.373
305.21	2.429
305.67	2.406
306.14	2.446
306.61	2.352
307.07	2.380
307.54	2.386
308.01	2.321
308.47	2.357
308.94	2.355
309.40	2.351
309.87	2.312
310.34	2.394
310.80	2.246
311.27	2.283
311.74	2.377
312.20	2.267
312.67	2.363
313.13	2.235
313.60	2.353
314.07	2.557
314.53	2.262
315.00	2.280
315.47	2.386
315.93	2.294
316.40	2.398
316.86	2.417
317.33	2.334
317.80	2.270
318.26	2.285
318.73	2.294
319.19	2.347
319.66	2.209
320.13	2.291
320.59	2.327
321.06	2.165
321.52	2.268
321.99	2.270
322.45	2.219
322.92	2.253
323.39	2.267
323.85	2.182
324.32	2.283
324.78	2.150
325.25	2.140
325.71	2.293
326.18	2.187
326.64	2.214
327.11	2.190
327.58	2.163
328.04	2.163
328.51	2.255
328.97	2.102
329.44	2.237
329.90	2.176
330.37	2.059
330.83	2.250
331.30	2.138
331.76	2.069
332.23	2.128
332.69	2.130
333.16	2.135
333.62	2.159
334.09	2.132
334.56	2.220
335.02	2.079
335.49	2.044
335.95	2.142
336.42	2.113
336.88	2.017
337.35	2.059
337.81	2.033
338.28	2.096
338.74	2.063
339.20	2.105
339.67	2.105
340.13	2.079
340.60	2.103
341.06	2.111
341.53	2.062
341.99	2.093
342.46	2.066
342.92	2.053
343.39	2.049
343.85	2.046
344.32	2.024
344.78	2.013
345.25	1.994
345.71	2.017
346.17	2.050
346.64	1.974
347.10	1.920
347.57	1.984
348.03	1.920
348.50	1.903
348.96	1.837
349.43	1.891
349.89	1.818
350.35	1.781
350.82	1.758
351.28	1.812
351.75	1.687
352.21	1.677
352.67	1.698
353.14	1.604
353.60	1.617
354.07	1.654
354.53	1.559
355.00	1.565
355.46	1.513
355.92	1.458
356.39	1.495
356.85	1.440
357.31	1.424
357.78	1.418
358.24	1.321
358.71	1.283
359.17	1.250
359.63	1.183
360.10	1.140
360.56	1.089
361.03	1.027
361.49	0.967
361.95	0.907
362.42	0.848
362.88	0.797
363.34	0.739
363.81	0.692
364.27	0.645
364.73	0.597
365.20	0.558
365.66	0.520
366.12	0.482
366.59	0.458
367.05	0.426
367.51	0.397
367.98	0.373
368.44	0.356
368.90	0.336
369.37	0.321
369.83	0.304
370.29	0.294
370.76	0.285
371.22	0.272
371.68	0.262
372.15	0.259
372.61	0.246
373.07	0.247
373.54	0.240
374.00	0.233
374.46	0.232
374.92	0.225
375.39	0.224
375.85	0.223
376.31	0.219
376.78	0.217
377.24	0.213
377.70	0.212
378.16	0.213
378.63	0.209
379.09	0.207
379.55	0.206
380.01	0.205
380.48	0.201
380.94	0.203
381.40	0.200
381.87	0.197
382.33	0.199
382.79	0.198
383.25	0.193
383.72	0.194
384.18	0.191
384.64	0.189
385.10	0.188
385.56	0.189
386.03	0.186
386.49	0.184
386.95	0.183
387.41	0.181
387.88	0.182
388.34	0.185
388.80	0.183
389.26	0.181
389.72	0.178
390.19	0.180
390.65	0.176
391.11	0.177
391.57	0.175
392.04	0.174
392.50	0.171
392.96	0.171
393.42	0.175
393.88	0.174
394.34	0.171
394.81	0.172
395.27	0.164
395.73	0.164
396.19	0.169
396.65	0.165
397.12	0.165
397.58	0.164
398.04	0.165
398.50	0.164
398.96	0.164
399.42	0.160
399.89	0.163
400.35	0.157
400.81	0.161
401.27	0.164
401.73	0.157
402.19	0.156
402.65	0.155
403.12	0.157
403.58	0.157
404.04	0.154
404.50	0.156
404.96	0.155
405.42	0.150
405.88	0.152
406.34	0.152
406.81	0.149
407.27	0.151
407.73	0.149
408.19	0.146
408.65	0.145
409.11	0.145
409.57	0.148
410.03	0.148
410.49	0.144
410.96	0.143
411.42	0.145
411.88	0.144
412.34	0.140
412.80	0.143
413.26	0.141
413.72	0.139
414.18	0.139
414.64	0.136
415.10	0.141
415.56	0.140
416.02	0.135
416.48	0.135
416.95	0.137
417.41	0.135
417.87	0.134
418.33	0.135
418.79	0.136
419.25	0.135
419.71	0.132
420.17	0.133
420.63	0.133
421.09	0.135
421.55	0.134
422.01	0.129
422.47	0.133
422.93	0.133
423.39	0.132
423.85	0.130
424.31	0.128
424.77	0.127
425.23	0.127
425.69	0.130
426.15	0.130
426.61	0.131
427.07	0.127
427.53	0.126
427.99	0.129
428.45	0.126
428.91	0.127
429.37	0.125
429.83	0.126
430.29	0.128
430.75	0.123
431.21	0.120
431.67	0.124
432.13	0.119
432.59	0.122
433.05	0.122
433.51	0.120
433.97	0.122
434.43	0.122
434.89	0.120
435.35	0.121
435.81	0.117
436.27	0.119
436.73	0.121
437.19	0.119
437.65	0.116
438.11	0.120
438.57	0.121
439.03	0.114
439.48	0.119
439.94	0.116
440.40	0.114
440.86	0.117
441.32	0.115
441.78	0.121
442.24	0.114
442.70	0.116
443.16	0.116
443.62	0.112
444.08	0.114
444.54	0.115
444.99	0.112
445.45	0.113
445.91	0.109
446.37	0.112
446.83	0.107
447.29	0.113
447.75	0.108
448.21	0.113
448.67	0.112
449.12	0.104
449.58	0.106
450.04	0.108
450.50	0.104
450.96	0.106
451.42	0.110
451.88	0.110
452.34	0.106
452.79	0.104
453.25	0.108
453.71	0.104
454.17	0.103
454.63	0.108
455.09	0.107
455.55	0.104
456.00	0.104
456.46	0.107
456.92	0.104
457.38	0.105
457.84	0.101
458.30	0.105
458.75	0.103
459.21	0.101
459.67	0.103
460.13	0.106
460.59	0.103
461.04	0.101
461.50	0.102
461.96	0.101
462.42	0.103
462.88	0.100
463.33	0.102
463.79	0.102
464.25	0.100
464.71	0.101
465.17	0.100
465.62	0.101
466.08	0.100
466.54	0.100
467.00	0.101
467.46	0.100
467.91	0.100
468.37	0.098
468.83	0.099
469.29	0.100
469.74	0.101
470.20	0.098
470.66	0.097
471.12	0.100
471.57	0.099
472.03	0.098
472.49	0.100
472.95	0.096
473.40	0.098
473.86	0.096
474.32	0.096
474.78	0.097
475.23	0.096
475.69	0.095
476.15	0.097
476.60	0.094
477.06	0.095
477.52	0.096
477.98	0.096
478.43	0.098
478.89	0.097
479.35	0.094
479.80	0.094
480.26	0.093
480.72	0.094
481.18	0.095
481.63	0.094
482.09	0.094
482.55	0.093
483.00	0.093
483.46	0.093
483.92	0.093
484.37	0.095
484.83	0.093
485.29	0.093
485.74	0.092
486.20	0.089
486.66	0.090
487.11	0.092
487.57	0.094
488.03	0.093
488.48	0.090
488.94	0.093
489.40	0.090
489.85	0.090
490.31	0.090
490.77	0.091
491.22	0.089
491.68	0.091
492.13	0.089
492.59	0.089
493.05	0.090
493.50	0.087
493.96	0.089
494.42	0.088
494.87	0.091
495.33	0.090
495.78	0.087
496.24	0.086
496.70	0.088
497.15	0.086
497.61	0.087
498.06	0.090
498.52	0.088
498.98	0.089
499.43	0.086
499.89	0.085
500.34	0.086
500.80	0.088
501.25	0.087
501.71	0.087
502.17	0.087
502.62	0.084
503.08	0.083
503.53	0.085
503.99	0.085
504.44	0.085
504.90	0.084
505.36	0.083
505.81	0.082
506.27	0.085
506.72	0.085
507.18	0.086
507.63	0.085
508.09	0.083
508.54	0.083
509.00	0.085
509.45	0.086
509.91	0.084
510.36	0.084
510.82	0.084
511.27	0.082
511.73	0.082
512.19	0.080
512.64	0.083
513.10	0.083
513.55	0.081
514.01	0.081
514.46	0.082
514.92	0.081
515.37	0.083
515.83	0.079
516.28	0.081
516.73	0.080
517.19	0.078
517.64	0.081
518.10	0.080
518.55	0.081
519.01	0.079
519.46	0.079
519.92	0.079
520.37	0.081
520.83	0.082
521.28	0.080
521.74	0.079
522.19	0.079
522.65	0.080
523.10	0.079
523.55	0.077
524.01	0.082
524.46	0.079
524.92	0.080
525.37	0.078
525.83	0.078
526.28	0.076
526.73	0.078
527.19	0.079
527.64	0.081
528.10	0.078
528.55	0.079
529.01	0.078
529.46	0.077
529.91	0.078
530.37	0.077
530.82	0.079
531.28	0.079
531.73	0.078
532.18	0.079
532.64	0.078
533.09	0.076
533.54	0.076
534.00	0.076
534.45	0.077
534.91	0.074
535.36	0.079
535.81	0.075
536.27	0.079
536.72	0.076
537.17	0.079
537.63	0.078
538.08	0.078
538.54	0.075
538.99	0.076
539.44	0.079
539.90	0.076
540.35	0.076
540.80	0.077
541.26	0.076
541.71	0.077
542.16	0.078
542.62	0.078
543.07	0.078
543.52	0.077
543.98	0.078
544.43	0.077
544.88	0.077
545.34	0.079
545.79	0.078
546.24	0.079
546.69	0.076
547.15	0.076
547.60	0.079
548.05	0.078
548.51	0.076
548.96	0.078
549.41	0.080
549.86	0.079
550.32	0.080
550.77	0.079
551.22	0.079
551.68	0.079
552.13	0.079
552.58	0.078
553.03	0.079
553.49	0.077
553.94	0.078
554.39	0.079
554.84	0.082
555.30	0.081
555.75	0.079
556.20	0.078
556.65	0.080
557.11	0.080
557.56	0.081
558.01	0.079
558.46	0.083
558.92	0.082
559.37	0.080
559.82	0.081
560.27	0.082
560.72	0.079
561.18	0.081
561.63	0.082
562.08	0.082
562.53	0.080
562.99	0.082
563.44	0.083
563.89	0.081
564.34	0.082
564.79	0.082
565.25	0.085
565.70	0.083
566.15	0.084
566.60	0.081
567.05	0.085
567.50	0.085
567.96	0.086
568.41	0.086
568.86	0.086
569.31	0.086
569.76	0.087
570.21	0.086
570.67	0.085
571.12	0.086
571.57	0.087
572.02	0.088
572.47	0.088
572.92	0.087
573.37	0.087
573.83	0.088
574.28	0.087
574.73	0.087
575.18	0.088
575.63	0.090
576.08	0.088
576.53	0.088
576.98	0.087
577.44	0.089
577.89	0.090
578.34	0.090
578.79	0.092
579.24	0.091
579.69	0.092
580.14	0.092
580.59	0.092
581.04	0.093
581.49	0.093
581.95	0.096
582.40	0.094
582.85	0.094
583.30	0.096
583.75	0.096
584.20	0.098
584.65	0.095
585.10	0.097
585.55	0.097
586.00	0.100
586.45	0.100
586.90	0.099
587.35	0.099
587.80	0.100
588.25	0.102
588.71	0.101
589.16	0.102
589.61	0.106
590.06	0.105
590.51	0.105
590.96	0.105
591.41	0.108
591.86	0.108
592.31	0.109
592.76	0.108
593.21	0.111
593.66	0.111
594.11	0.112
594.56	0.112
595.01	0.115
595.46	0.114
595.91	0.113
596.36	0.114
596.81	0.119
597.26	0.117
597.71	0.118
598.16	0.118
598.61	0.117
599.06	0.121
599.51	0.120
599.96	0.121
600.41	0.121
600.86	0.124
601.31	0.124
601.76	0.124
602.21	0.125
602.65	0.128
603.10	0.128
603.55	0.128
604.00	0.129
604.45	0.128
604.90	0.130
605.35	0.132
605.80	0.129
606.25	0.130
606.70	0.132
607.15	0.132
607.60	0.133
608.05	0.134
608.50	0.135
608.95	0.137
609.39	0.135
609.84	0.136
610.29	0.134
610.74	0.139
611.19	0.135
611.64	0.138
612.09	0.141
612.54	0.140
612.99	0.139
613.44	0.139
613.88	0.142
614.33	0.139
614.78	0.139
615.23	0.140
615.68	0.140
616.13	0.141
616.58	0.141
617.03	0.140
617.47	0.142
617.92	0.144
618.37	0.142
618.82	0.141
619.27	0.142
619.72	0.141
620.17	0.142
620.61	0.143
621.06	0.145
621.51	0.144
621.96	0.142
622.41	0.147
622.86	0.142
623.30	0.144
623.75	0.145
624.20	0.146
624.65	0.146
625.10	0.145
625.54	0.146
625.99	0.148
626.44	0.146
626.89	0.146
627.34	0.148
627.78	0.147
628.23	0.149
628.68	0.148
629.13	0.149
629.58	0.148
630.02	0.150
630.47	0.151
630.92	0.152
631.37	0.154
631.81	0.153
632.26	0.154
632.71	0.155
633.16	0.154
633.61	0.158
634.05	0.155
634.50	0.156
634.95	0.157
635.40	0.158
635.84	0.161
636.29	0.160
636.74	0.160
637.18	0.163
637.63	0.162
638.08	0.165
638.53	0.168
638.97	0.168
639.42	0.169
639.87	0.169
640.32	0.171
640.76	0.173
641.21	0.173
641.66	0.175
642.10	0.178
642.55	0.176
643.00	0.177
643.44	0.180
643.89	0.181
644.34	0.184
644.79	0.184
645.23	0.185
645.68	0.189
646.13	0.189
646.57	0.191
647.02	0.190
647.47	0.191
647.91	0.192
648.36	0.196
648.81	0.197
649.25	0.196
649.70	0.200
650.15	0.201
650.59	0.200
651.04	0.203
651.48	0.205
651.93	0.207
652.38	0.209
652.82	0.209
653.27	0.210
653.72	0.211
654.16	0.212
654.61	0.213
655.06	0.214
655.50	0.215
655.95	0.215
656.39	0.218
656.84	0.218
657.29	0.217
657.73	0.222
658.18	0.221
658.62	0.222
659.07	0.226
659.52	0.225
659.96	0.226
660.41	0.226
660.85	0.225
661.30	0.228
661.74	0.229
662.19	0.232
662.64	0.228
663.08	0.228
663.53	0.230
663.97	0.231
664.42	0.231
664.86	0.230
665.31	0.229
665.75	0.232
666.20	0.228
666.65	0.229
667.09	0.229
667.54	0.228
667.98	0.229
668.43	0.228
668.87	0.225
669.32	0.224
669.76	0.223
670.21	0.222
670.65	0.221
671.10	0.219
671.54	0.215
671.99	0.214
672.43	0.211
672.88	0.208
673.32	0.206
673.77	0.202
674.21	0.203
674.66	0.200
675.10	0.195
675.55	0.193
675.99	0.190
676.44	0.187
676.88	0.180
677.33	0.180
677.77	0.176
678.22	0.173
678.66	0.167
679.11	0.166
679.55	0.162
679.99	0.157
680.44	0.154
680.88	0.150
681.33	0.147
681.77	0.142
682.22	0.140
682.66	0.135
683.11	0.132
683.55	0.128
683.99	0.126
684.44	0.123
684.88	0.119
685.33	0.115
685.77	0.113
686.21	0.109
686.66	0.107
687.10	0.104
687.55	0.102
687.99	0.101
688.44	0.096
688.88	0.094
689.32	0.093
689.77	0.090
690.21	0.086
690.65	0.085
691.10	0.080
691.54	0.082
691.99	0.079
692.43	0.077
692.87	0.074
693.32	0.072
693.76	0.073
694.20	0.071
694.65	0.071
695.09	0.071
695.53	0.068
695.98	0.066
696.42	0.064
696.86	0.064
697.31	0.063
697.75	0.063
698.19	0.060
698.64	0.059
699.08	0.059
699.52	0.057
699.97	0.058
700.41	0.058
700.85	0.056
701.30	0.056
701.74	0.052
702.18	0.055
702.63	0.053
703.07	0.052
703.51	0.052
703.96	0.052
704.40	0.052
704.84	0.051
705.28	0.051
705.73	0.049
706.17	0.049
706.61	0.049
707.06	0.049
707.50	0.049
707.94	0.048
708.38	0.047
708.83	0.049
709.27	0.043
709.71	0.050
710.15	0.046
710.60	0.049
711.04	0.048
711.48	0.045
711.92	0.048
712.37	0.049
712.81	0.048
713.25	0.046
713.69	0.047
714.13	0.045
714.58	0.046
715.02	0.045
715.46	0.045
715.90	0.046
716.35	0.045
716.79	0.047
717.23	0.048
717.67	0.047
718.11	0.044
718.56	0.045
719.00	0.044
719.44	0.045
719.88	0.048
720.32	0.045
720.76	0.044
721.21	0.048
721.65	0.046
722.09	0.047
722.53	0.047
722.97	0.044
723.41	0.047
723.86	0.046
724.30	0.044
724.74	0.045
725.18	0.046
725.62	0.045
726.06	0.047
726.50	0.045
726.95	0.046
727.39	0.048
727.83	0.046
728.27	0.045
728.71	0.043
729.15	0.046
729.59	0.047
730.03	0.049
730.48	0.048
730.92	0.045
731.36	0.045
731.80	0.046
732.24	0.046
732.68	0.048
733.12	0.049
733.56	0.048
734.00	0.049
734.44	0.050
734.89	0.049
735.33	0.049
735.77	0.048
736.21	0.048
736.65	0.050
737.09	0.050
737.53	0.048
737.97	0.051
738.41	0.049
738.85	0.048
739.29	0.047
739.73	0.049
740.17	0.048
740.61	0.050
741.05	0.051
741.49	0.048
741.93	0.049
742.37	0.050
742.81	0.049
743.26	0.048
743.70	0.048
744.14	0.049
744.58	0.050
745.02	0.052
745.46	0.047
745.90	0.050
746.34	0.049
746.78	0.049
747.22	0.048
747.66	0.049
748.10	0.049
748.54	0.049
748.98	0.045
749.42	0.048
749.86	0.048
750.29	0.051
750.73	0.049
751.17	0.045
751.61	0.050
752.05	0.048
752.49	0.049
752.93	0.049
753.37	0.048
753.81	0.049
754.25	0.047
754.69	0.048
755.13	0.051
755.57	0.046
756.01	0.046
756.45	0.046
756.89	0.046
757.33	0.051
757.77	0.049
758.21	0.047
758.64	0.051
759.08	0.048
759.52	0.047
759.96	0.048
760.40	0.048
760.84	0.048
761.28	0.049
761.72	0.046
762.16	0.047
762.60	0.046
763.03	0.046
763.47	0.045
763.91	0.045
764.35	0.046
764.79	0.050
765.23	0.046
765.67	0.047
766.11	0.046
766.54	0.048
766.98	0.048
767.42	0.046
767.86	0.047
768.30	0.050
768.74	0.049
769.17	0.049
769.61	0.046
770.05	0.045
770.49	0.047
770.93	0.045
771.37	0.047
771.80	0.047
772.24	0.047
772.68	0.045
773.12	0.045
773.56	0.047
774.00	0.045
774.43	0.047
774.87	0.045
775.31	0.048
775.75	0.048
776.19	0.046
776.62	0.049
777.06	0.045
777.50	0.046
777.94	0.047
778.37	0.048
778.81	0.048
779.25	0.049
779.69	0.047
780.13	0.045
780.56	0.045
781.00	0.049
781.44	0.048
781.88	0.046
782.31	0.047
782.75	0.046
783.19	0.048
783.63	0.050
784.06	0.046
784.50	0.046
784.94	0.048
785.37	0.049
785.81	0.045
786.25	0.046
786.69	0.048
787.12	0.048
787.56	0.049
788.00	0.043
788.43	0.042
788.87	0.044
789.31	0.043
789.75	0.047
790.18	0.043
790.62	0.045
791.06	0.049
791.49	0.049
791.93	0.043
792.37	0.044
792.80	0.045
793.24	0.042
793.68	0.044
794.11	0.046
794.55	0.046
794.99	0.047
795.42	0.047
795.86	0.049
796.30	0.045
796.73	0.043
797.17	0.047
797.61	0.043
798.04	0.040
798.48	0.044
798.91	0.044
799.35	0.044
799.79	0.046
800.22	0.046
800.66	0.046
801.10	0.044
801.53	0.044
801.97	0.044
802.40	0.045
802.84	0.045
803.28	0.044
803.71	0.044
804.15	0.043
804.58	0.050
805.02	0.043
805.46	0.045
805.89	0.045
806.33	0.041
806.76	0.043
807.20	0.046
807.63	0.046
808.07	0.048
808.51	0.042
808.94	0.045
809.38	0.046
809.81	0.043
810.25	0.045
810.68	0.048
811.12	0.044
811.55	0.045
811.99	0.043
812.42	0.043
812.86	0.047
813.29	0.047
813.73	0.044
814.17	0.048
814.60	0.042
815.04	0.044
815.47	0.043
815.91	0.043
816.34	0.048
816.78	0.044
817.21	0.041
817.65	0.044
818.08	0.049
818.52	0.042
818.95	0.047
819.39	0.046
819.82	0.046
820.25	0.044
820.69	0.042
821.12	0.045
821.56	0.045
821.99	0.047
822.43	0.049
822.86	0.043
823.30	0.038
823.73	0.040
824.17	0.047
824.60	0.043
825.04	0.046
825.47	0.043
825.90	0.047
826.34	0.043
826.77	0.044
827.21	0.047
827.64	0.045
828.08	0.050
828.51	0.048
828.94	0.042
829.38	0.049
829.81	0.047
830.25	0.046
830.68	0.048
831.11	0.049
831.55	0.051
831.98	0.051
832.42	0.051
832.85	0.046
833.28	0.044
833.72	0.047
834.15	0.050
834.58	0.050
835.02	0.047
835.45	0.052
835.88	0.048
836.32	0.048
836.75	0.052
837.19	0.049
837.62	0.052
838.05	0.054
838.49	0.052
838.92	0.052
839.35	0.048
839.79	0.050
840.22	0.048
840.65	0.049
841.09	0.052
841.52	0.054
841.95	0.052
842.39	0.044
842.82	0.049
843.25	0.052
843.68	0.054
844.12	0.054
844.55	0.054
844.98	0.049
845.42	0.047
845.85	0.057
846.28	0.053
846.71	0.053
847.15	0.053
847.58	0.055
848.01	0.051
848.45	0.053
848.88	0.056
849.31	0.053
849.74	0.052
850.18	0.047
850.61	0.050
851.04	0.059
851.47	0.051
851.91	0.055
852.34	0.059
852.77	0.058
853.20	0.057
853.64	0.061
854.07	0.055
854.50	0.052
854.93	0.057
855.36	0.053
855.80	0.053
856.23	0.056
856.66	0.056
857.09	0.052
857.52	0.057
857.96	0.053
858.39	0.058
858.82	0.054
859.25	0.051
859.68	0.055
860.12	0.056
860.55	0.057
860.98	0.049
861.41	0.049
861.84	0.056
862.27	0.054
862.71	0.053
863.14	0.057
863.57	0.059
864.00	0.059
864.43	0.057
864.86	0.051
865.30	0.054
865.73	0.054
866.16	0.057
866.59	0.058
867.02	0.056
867.45	0.059
867.88	0.067
868.31	0.050
868.75	0.047
869.18	0.061
869.61	0.056
870.04	0.056
870.47	0.060
870.90	0.059
871.33	0.058
871.76	0.058
872.19	0.054
872.62	0.057
873.06	0.064
873.49	0.061
873.92	0.057
874.35	0.058
874.78	0.060
875.21	0.058
875.64	0.063
876.07	0.060
876.50	0.062
876.93	0.061
877.36	0.062
877.79	0.063
878.22	0.057
878.65	0.064
879.08	0.064
879.51	0.054
879.94	0.053
880.37	0.056
880.80	0.056
881.23	0.059
881.67	0.057
882.10	0.058
882.53	0.057
882.96	0.058
883.39	0.060
883.82	0.061
884.25	0.069
884.68	0.071
885.11	0.060
885.54	0.066
885.97	0.060
886.39	0.067
886.82	0.063
887.25	0.067
887.68	0.059
888.11	0.064
888.54	0.064
888.97	0.061
889.40	0.064
889.83	0.067
890.26	0.066
890.69	0.065
891.12	0.067
891.55	0.068
891.98	0.066
892.41	0.065
892.84	0.067
893.27	0.066
893.70	0.063
894.13	0.070
894.56	0.072
894.98	0.069
895.41	0.066
895.84	0.070
896.27	0.067
896.70	0.064
897.13	0.065
897.56	0.073
897.99	0.067
898.42	0.066
898.85	0.082
899.27	0.067
899.70	0.067
900.13	0.070
900.56	0.069
900.99	0.071
901.42	0.064
901.85	0.068
902.28	0.072
902.70	0.075
903.13	0.068
903.56	0.068
903.99	0.072
904.42	0.071
904.85	0.067
905.27	0.067
905.70	0.070
906.13	0.072
906.56	0.074
906.99	0.073
907.42	0.068
907.84	0.068
908.27	0.069
908.70	0.069
909.13	0.074
909.56	0.072
909.98	0.070
910.41	0.074
910.84	0.071
911.27	0.070
911.70	0.071
912.12	0.070
912.55	0.070
912.98	0.070
913.41	0.069
913.84	0.068
914.26	0.072
914.69	0.070
915.12	0.071
915.55	0.069
915.97	0.074
916.40	0.070
916.83	0.066
917.26	0.065
917.68	0.072
918.11	0.069
918.54	0.073
918.97	0.069
919.39	0.074
919.82	0.075
920.25	0.071
920.67	0.071
921.10	0.075
921.53	0.072
921.96	0.072
922.38	0.075
922.81	0.077
923.24	0.075
923.66	0.074
924.09	0.072
924.52	0.077
924.94	0.077
925.37	0.077
925.80	0.083
926.22	0.080
926.65	0.081
927.08	0.077
927.50	0.083
927.93	0.080
928.36	0.085
928.78	0.084
929.21	0.088
929.64	0.093
930.06	0.088
930.49	0.088
930.92	0.085
931.34	0.086
931.77	0.089
932.20	0.088
932.62	0.094
933.05	0.092
933.47	0.096
933.90	0.097
934.33	0.092
934.75	0.097
935.18	0.093
935.61	0.097
936.03	0.099
936.46	0.102
936.88	0.104
937.31	0.108
937.73	0.109
938.16	0.104
938.59	0.110
939.01	0.115
939.44	0.114
939.86	0.118
940.29	0.115
940.71	0.114
941.14	0.120
941.57	0.121
941.99	0.119
942.42	0.131
942.84	0.126
943.27	0.113
943.69	0.135
944.12	0.133
944.54	0.135
944.97	0.135
945.39	0.135
945.82	0.143
946.24	0.135
946.67	0.145
947.09	0.153
947.52	0.152
947.94	0.151
948.37	0.157
948.79	0.156
949.22	0.162
949.64	0.165
950.07	0.157
950.49	0.168
950.92	0.170
951.34	0.172
951.77	0.173
952.19	0.173
952.62	0.179
953.04	0.186
953.47	0.175
953.89	0.184
954.32	0.188
954.74	0.186
955.17	0.193
955.59	0.196
956.01	0.194
956.44	0.205
956.86	0.200
957.29	0.205
957.71	0.210
958.14	0.211
958.56	0.215
958.98	0.218
959.41	0.220
959.83	0.223
960.26	0.226
960.68	0.224
961.10	0.227
961.53	0.227
961.95	0.228
962.38	0.230
962.80	0.228
963.22	0.227
963.65	0.229
964.07	0.229
964.50	0.231
964.92	0.232
965.34	0.233
965.77	0.241
966.19	0.235
966.61	0.227
967.04	0.234
967.46	0.236
967.88	0.236
968.31	0.248
968.73	0.236
969.15	0.239
969.58	0.239
970.00	0.239
970.42	0.237
970.85	0.239
971.27	0.233
971.69	0.246
972.12	0.238
972.54	0.242
972.96	0.243
973.39	0.234
973.81	0.246
974.23	0.245
974.65	0.242
975.08	0.247
975.50	0.244
975.92	0.236
976.35	0.242
976.77	0.241
977.19	0.235
977.61	0.244
978.04	0.247
978.46	0.244
978.88	0.246
979.30	0.239
979.73	0.246
980.15	0.245
980.57	0.237
980.99	0.241
981.42	0.240
981.84	0.243
982.26	0.246
982.68	0.239
983.11	0.243
983.53	0.241
983.95	0.244
984.37	0.247
984.79	0.243
985.22	0.240
985.64	0.236
986.06	0.238
986.48	0.234
986.90	0.238
987.33	0.240
987.75	0.240
988.17	0.248
988.59	0.233
989.01	0.238
989.43	0.240
989.86	0.229
990.28	0.234
990.70	0.236
991.12	0.230
991.54	0.231
991.96	0.238
992.39	0.232
992.81	0.233
993.23	0.228
993.65	0.234
994.07	0.231
994.49	0.222
994.91	0.223
995.34	0.221
995.76	0.222
996.18	0.224
996.60	0.230
997.02	0.223
997.44	0.220
997.86	0.222
998.28	0.219
998.70	0.220
999.12	0.212
999.55	0.227
999.97	0.219
1000.39	0.209
1000.81	0.218
1001.23	0.214
1001.65	0.216
1002.07	0.217
1002.49	0.210
1002.91	0.217
1003.33	0.217
1003.75	0.200
1004.17	0.217
1004.59	0.213
1005.01	0.215
1005.43	0.209
1005.85	0.206
1006.28	0.207
1006.70	0.210
1007.12	0.199
1007.54	0.206
1007.96	0.198
1008.38	0.204
1008.80	0.205
1009.22	0.215
1009.64	0.196
1010.06	0.205
1010.48	0.197
1010.90	0.189
1011.32	0.192
1011.74	0.187
1012.16	0.192
1012.58	0.188
1013.00	0.182
1013.42	0.199
1013.84	0.186
1014.26	0.184
1014.67	0.197
1015.09	0.173
1015.51	0.183
1015.93	0.190
1016.35	0.188
1016.77	0.188
1017.19	0.177
1017.61	0.172
1018.03	0.189
1018.45	0.189
1018.87	0.162
1019.29	0.177
1019.71	0.171
1020.13	0.161
1020.55	0.174
1020.97	0.168
1021.38	0.159
1021.80	0.183
1022.22	0.161
1022.64	0.170
1023.06	0.160
1023.48	0.156
1023.90	0.168
1024.32	0.174
1024.74	0.154
1025.15	0.169
1025.57	0.153
1025.99	0.156
1026.41	0.157
1026.83	0.149
1027.25	0.158
1027.67	0.163
1028.08	0.150
1028.50	0.166
1028.92	0.151
1029.34	0.147
1029.76	0.151
1030.18	0.140
1030.60	0.133
1031.01	0.161
1031.43	0.130
1031.85	0.135
1032.27	0.156
1032.69	0.123
1033.10	0.137
1033.52	0.147
1033.94	0.146
1034.36	0.154
1034.78	0.129
1035.19	0.129
1035.61	0.153
1036.03	0.138
1036.45	0.128
1036.87	0.147
1037.28	0.120
1037.70	0.139
1038.12	0.125
1038.54	0.123
1038.95	0.124
1039.37	0.141
1039.79	0.126
1040.21	0.115
1040.62	0.138
1041.04	0.125
1041.46	0.125
1041.88	0.105
1042.29	0.123
1042.71	0.118
1043.13	0.084
1043.55	0.106
1043.96	0.119
1044.38	0.119
1044.80	0.108
1045.21	0.112
1045.63	0.111
1046.05	0.116
1046.47	0.116
1046.88	0.111
1047.30	0.137
1047.72	0.117
1048.13	0.108
1048.55	0.103
1048.97	0.118
1049.38	0.106
1049.80	0.097
1050.22	0.085
1050.63	0.128
1051.05	0.086
1051.47	0.094
1051.88	0.094
1052.30	0.076
1052.72	0.118
1053.13	0.102
1053.55	0.114
1053.97	0.150
1054.38	0.103
1054.80	0.105
1055.21	0.159
1055.63	0.102
1056.05	0.089
1056.46	0.146
1056.88	0.113
1057.29	0.111
1057.71	0.099
1058.13	0.091
1058.54	0.136
1058.96	0.089
1059.37	0.115
1059.79	0.139
1060.21	0.076
1060.62	0.079
1061.04	0.162
1061.45	0.081
1061.87	0.130
1062.28	0.111
1062.70	0.097
1063.12	0.119
1063.53	0.091
1063.95	0.092
1064.36	0.114
1064.78	0.147
1065.19	0.102
1065.61	0.131
1066.02	0.111
1066.44	0.083
1066.85	0.112
1067.27	0.167
1067.68	0.158
1068.10	0.108
1068.51	0.152
1068.93	0.181
1069.35	0.106
1069.76	0.169
1070.17	0.201
1070.59	0.061
1071.00	0.120
1071.42	0.177
1071.83	0.045
1072.25	0.164
1072.66	0.145
1073.08	0.072
1073.49	0.188
1073.91	0.154
1074.32	0.156
1074.74	0.242
1075.15	0.131
1075.57	0.180
1075.98	0.294
1076.40	0.072
1076.81	0.085
1077.22	0.183
1077.64	0.071
1078.05	0.224
1078.47	-0.070
1078.88	0.250
1079.30	0.178
1079.71	0.122
1080.12	0.385
1080.54	0.117
1080.95	0.181
1081.37	0.259
1081.78	0.051
1082.19	0.038
1082.61	0.059
1083.02	-0.028
1083.44	0.143
1083.85	0.259
1084.26	0.244
1084.68	0.176
1085.09	0.148
1085.50	0.134
1085.92	0.100
1086.33	0.357
1086.74	0.242
1087.16	0.446
1087.57	0.228
1087.98	0.158
1088.40	0.462
1088.81	0.290
1089.22	0.145
1089.64	0.186
1090.05	-0.129
1090.46	0.178
1090.88	-0.000
1091.29	0.146
1091.70	-0.000
1092.12	-0.000
1092.53	0.342
1092.94	0.339
1093.36	0.061
1093.77	0.159
1094.18	0.710
1094.59	0.121
1095.01	1.540
1095.42	0.468
1095.83	0.262
1096.25	0.353
1096.66	0.090
1097.07	0.053
1097.48	-0.000
1097.90	-0.174
1098.31	0.483
1098.72	0.019
1099.13	0.010
>>>>>End Processed Spectral Data<<<<<
