SpectraSuite Data File
++++++++++++++++++++++++++++++++++++
Date: Tue Jul 11 13:50:29 CEST 2017
User: IPCE
Dark Spectrum Present: Yes
Reference Spectrum Present: Yes
Number of Sampled Component Spectra: 1
Spectrometers: HR+C0708
Integration Time (usec): 1000 (HR+C0708)
Spectra Averaged: 10 (HR+C0708)
Boxcar Smoothing: 0 (HR+C0708)
Correct for Electrical Dark: No (HR+C0708)
Strobe/Lamp Enabled: No (HR+C0708)
Correct for Detector Non-linearity: No (HR+C0708)
Correct for Stray Light: No (HR+C0708)
Number of Pixels in Processed Spectrum: 2048
>>>>>Begin Processed Spectral Data<<<<<
188.76	0.412
189.23	0.376
189.70	0.465
190.17	-0.013
190.64	0.516
191.12	0.583
191.59	0.495
192.06	0.181
192.53	0.585
193.01	0.435
193.48	0.028
193.95	-0.105
194.42	0.188
194.90	0.725
195.37	-0.000
195.84	0.815
196.31	-0.000
196.78	0.807
197.26	0.577
197.73	0.485
198.20	0.897
198.67	-0.176
199.14	-0.254
199.62	-0.018
200.09	0.593
200.56	0.470
201.03	0.465
201.50	0.501
201.97	0.459
202.45	0.628
202.92	0.571
203.39	0.729
203.86	0.599
204.33	0.558
204.80	0.514
205.28	0.548
205.75	0.601
206.22	0.623
206.69	0.577
207.16	0.378
207.63	0.442
208.11	0.432
208.58	0.503
209.05	0.682
209.52	0.608
209.99	0.512
210.46	0.443
210.93	0.448
211.41	0.580
211.88	0.531
212.35	0.418
212.82	0.476
213.29	0.633
213.76	0.415
214.23	0.536
214.70	0.924
215.18	1.054
215.65	0.577
216.12	0.444
216.59	0.565
217.06	0.695
217.53	0.364
218.00	0.393
218.47	0.661
218.94	0.469
219.41	0.536
219.89	0.397
220.36	0.606
220.83	0.646
221.30	0.709
221.77	0.449
222.24	0.618
222.71	0.514
223.18	0.482
223.65	0.841
224.12	0.532
224.59	0.610
225.06	0.642
225.54	0.718
226.01	0.759
226.48	0.739
226.95	0.919
227.42	1.011
227.89	0.978
228.36	1.136
228.83	1.580
229.30	1.312
229.77	1.249
230.24	1.365
230.71	1.579
231.18	1.466
231.65	1.295
232.12	1.457
232.59	1.425
233.06	1.428
233.53	1.742
234.00	1.544
234.47	1.632
234.94	1.662
235.41	1.693
235.88	1.868
236.35	1.819
236.82	1.833
237.29	1.983
237.76	1.955
238.23	2.061
238.70	1.996
239.17	2.209
239.64	2.583
240.11	2.346
240.58	2.065
241.05	2.190
241.52	2.273
241.99	2.252
242.46	2.518
242.93	2.259
243.40	2.423
243.87	2.367
244.34	2.350
244.81	2.438
245.28	2.515
245.75	2.497
246.22	2.277
246.69	2.650
247.16	2.737
247.63	2.457
248.10	2.637
248.57	2.339
249.04	2.498
249.51	2.502
249.98	2.562
250.45	2.465
250.92	2.473
251.39	2.419
251.85	2.390
252.32	2.347
252.79	2.584
253.26	2.508
253.73	2.723
254.20	2.508
254.67	2.468
255.14	2.361
255.61	2.674
256.08	2.876
256.55	2.389
257.02	2.441
257.49	2.542
257.95	2.536
258.42	2.421
258.89	2.452
259.36	2.385
259.83	2.497
260.30	2.457
260.77	2.519
261.24	2.407
261.71	2.432
262.17	2.446
262.64	2.456
263.11	2.488
263.58	2.375
264.05	2.397
264.52	2.442
264.99	2.443
265.46	2.381
265.92	2.504
266.39	2.391
266.86	2.336
267.33	2.360
267.80	2.432
268.27	2.406
268.74	2.390
269.20	2.376
269.67	2.297
270.14	2.315
270.61	2.318
271.08	2.331
271.55	2.307
272.01	2.231
272.48	2.301
272.95	2.324
273.42	2.331
273.89	2.257
274.36	2.276
274.82	2.341
275.29	2.236
275.76	2.218
276.23	2.259
276.70	2.308
277.16	2.234
277.63	2.345
278.10	2.277
278.57	2.193
279.04	2.243
279.50	2.209
279.97	2.200
280.44	2.214
280.91	2.148
281.38	2.187
281.84	2.258
282.31	2.217
282.78	2.255
283.25	2.229
283.72	2.141
284.18	2.165
284.65	2.260
285.12	2.216
285.59	2.192
286.05	2.189
286.52	2.228
286.99	2.221
287.46	2.199
287.92	2.230
288.39	2.228
288.86	2.192
289.33	2.153
289.79	2.162
290.26	2.156
290.73	2.156
291.20	2.251
291.66	2.236
292.13	2.116
292.60	2.142
293.07	2.184
293.53	2.188
294.00	2.094
294.47	2.157
294.93	2.111
295.40	2.139
295.87	2.112
296.34	2.075
296.80	2.108
297.27	2.082
297.74	2.080
298.20	2.093
298.67	2.032
299.14	2.041
299.60	2.095
300.07	2.011
300.54	1.992
301.01	2.019
301.47	1.962
301.94	1.955
302.41	1.994
302.87	1.976
303.34	1.979
303.81	1.957
304.27	1.903
304.74	1.938
305.21	1.897
305.67	1.917
306.14	1.898
306.61	1.862
307.07	1.880
307.54	1.882
308.01	1.897
308.47	1.909
308.94	1.867
309.40	1.836
309.87	1.856
310.34	1.870
310.80	1.859
311.27	1.812
311.74	1.825
312.20	1.806
312.67	1.825
313.13	1.825
313.60	1.795
314.07	1.798
314.53	1.765
315.00	1.815
315.47	1.798
315.93	1.768
316.40	1.784
316.86	1.788
317.33	1.768
317.80	1.768
318.26	1.755
318.73	1.742
319.19	1.738
319.66	1.733
320.13	1.708
320.59	1.712
321.06	1.707
321.52	1.686
321.99	1.692
322.45	1.696
322.92	1.675
323.39	1.667
323.85	1.644
324.32	1.643
324.78	1.658
325.25	1.646
325.71	1.614
326.18	1.594
326.64	1.610
327.11	1.600
327.58	1.609
328.04	1.585
328.51	1.584
328.97	1.594
329.44	1.588
329.90	1.574
330.37	1.594
330.83	1.553
331.30	1.557
331.76	1.562
332.23	1.567
332.69	1.562
333.16	1.568
333.62	1.579
334.09	1.551
334.56	1.576
335.02	1.550
335.49	1.548
335.95	1.539
336.42	1.512
336.88	1.536
337.35	1.551
337.81	1.545
338.28	1.538
338.74	1.552
339.20	1.556
339.67	1.566
340.13	1.552
340.60	1.546
341.06	1.538
341.53	1.529
341.99	1.514
342.46	1.513
342.92	1.500
343.39	1.522
343.85	1.504
344.32	1.513
344.78	1.497
345.25	1.502
345.71	1.487
346.17	1.487
346.64	1.471
347.10	1.448
347.57	1.438
348.03	1.412
348.50	1.399
348.96	1.360
349.43	1.366
349.89	1.349
350.35	1.342
350.82	1.303
351.28	1.294
351.75	1.268
352.21	1.234
352.67	1.212
353.14	1.192
353.60	1.152
354.07	1.123
354.53	1.089
355.00	1.042
355.46	1.008
355.92	0.971
356.39	0.923
356.85	0.872
357.31	0.825
357.78	0.775
358.24	0.720
358.71	0.676
359.17	0.629
359.63	0.582
360.10	0.535
360.56	0.499
361.03	0.459
361.49	0.430
361.95	0.401
362.42	0.377
362.88	0.350
363.34	0.330
363.81	0.312
364.27	0.298
364.73	0.285
365.20	0.275
365.66	0.267
366.12	0.259
366.59	0.246
367.05	0.244
367.51	0.237
367.98	0.231
368.44	0.229
368.90	0.225
369.37	0.222
369.83	0.220
370.29	0.221
370.76	0.216
371.22	0.211
371.68	0.211
372.15	0.212
372.61	0.207
373.07	0.205
373.54	0.203
374.00	0.203
374.46	0.201
374.92	0.199
375.39	0.197
375.85	0.196
376.31	0.194
376.78	0.197
377.24	0.193
377.70	0.194
378.16	0.192
378.63	0.188
379.09	0.188
379.55	0.189
380.01	0.184
380.48	0.186
380.94	0.187
381.40	0.185
381.87	0.184
382.33	0.183
382.79	0.182
383.25	0.182
383.72	0.180
384.18	0.178
384.64	0.177
385.10	0.176
385.56	0.177
386.03	0.177
386.49	0.178
386.95	0.173
387.41	0.174
387.88	0.172
388.34	0.172
388.80	0.172
389.26	0.168
389.72	0.173
390.19	0.172
390.65	0.168
391.11	0.168
391.57	0.167
392.04	0.167
392.50	0.167
392.96	0.167
393.42	0.167
393.88	0.164
394.34	0.162
394.81	0.163
395.27	0.162
395.73	0.165
396.19	0.161
396.65	0.160
397.12	0.158
397.58	0.159
398.04	0.160
398.50	0.159
398.96	0.158
399.42	0.158
399.89	0.158
400.35	0.157
400.81	0.156
401.27	0.154
401.73	0.152
402.19	0.154
402.65	0.151
403.12	0.149
403.58	0.145
404.04	0.150
404.50	0.146
404.96	0.147
405.42	0.146
405.88	0.147
406.34	0.146
406.81	0.143
407.27	0.142
407.73	0.144
408.19	0.142
408.65	0.143
409.11	0.144
409.57	0.141
410.03	0.141
410.49	0.135
410.96	0.138
411.42	0.137
411.88	0.138
412.34	0.137
412.80	0.135
413.26	0.136
413.72	0.136
414.18	0.136
414.64	0.134
415.10	0.133
415.56	0.132
416.02	0.133
416.48	0.134
416.95	0.134
417.41	0.134
417.87	0.132
418.33	0.130
418.79	0.130
419.25	0.131
419.71	0.132
420.17	0.128
420.63	0.128
421.09	0.129
421.55	0.127
422.01	0.128
422.47	0.130
422.93	0.129
423.39	0.130
423.85	0.125
424.31	0.126
424.77	0.125
425.23	0.127
425.69	0.124
426.15	0.124
426.61	0.127
427.07	0.126
427.53	0.125
427.99	0.122
428.45	0.122
428.91	0.122
429.37	0.122
429.83	0.121
430.29	0.123
430.75	0.123
431.21	0.125
431.67	0.123
432.13	0.118
432.59	0.119
433.05	0.121
433.51	0.119
433.97	0.118
434.43	0.123
434.89	0.120
435.35	0.116
435.81	0.116
436.27	0.114
436.73	0.119
437.19	0.118
437.65	0.116
438.11	0.121
438.57	0.119
439.03	0.114
439.48	0.117
439.94	0.117
440.40	0.115
440.86	0.114
441.32	0.111
441.78	0.114
442.24	0.112
442.70	0.116
443.16	0.114
443.62	0.118
444.08	0.116
444.54	0.114
444.99	0.111
445.45	0.115
445.91	0.111
446.37	0.111
446.83	0.110
447.29	0.110
447.75	0.109
448.21	0.109
448.67	0.110
449.12	0.112
449.58	0.111
450.04	0.112
450.50	0.110
450.96	0.109
451.42	0.111
451.88	0.109
452.34	0.109
452.79	0.106
453.25	0.110
453.71	0.111
454.17	0.107
454.63	0.105
455.09	0.110
455.55	0.112
456.00	0.109
456.46	0.106
456.92	0.107
457.38	0.105
457.84	0.104
458.30	0.105
458.75	0.107
459.21	0.106
459.67	0.106
460.13	0.105
460.59	0.109
461.04	0.107
461.50	0.105
461.96	0.106
462.42	0.104
462.88	0.104
463.33	0.106
463.79	0.107
464.25	0.104
464.71	0.105
465.17	0.106
465.62	0.106
466.08	0.104
466.54	0.105
467.00	0.103
467.46	0.105
467.91	0.103
468.37	0.104
468.83	0.104
469.29	0.105
469.74	0.104
470.20	0.104
470.66	0.106
471.12	0.106
471.57	0.104
472.03	0.103
472.49	0.106
472.95	0.104
473.40	0.102
473.86	0.105
474.32	0.104
474.78	0.105
475.23	0.103
475.69	0.101
476.15	0.102
476.60	0.103
477.06	0.104
477.52	0.102
477.98	0.102
478.43	0.102
478.89	0.103
479.35	0.102
479.80	0.102
480.26	0.101
480.72	0.101
481.18	0.102
481.63	0.100
482.09	0.101
482.55	0.101
483.00	0.100
483.46	0.100
483.92	0.098
484.37	0.102
484.83	0.101
485.29	0.101
485.74	0.102
486.20	0.102
486.66	0.101
487.11	0.100
487.57	0.100
488.03	0.100
488.48	0.099
488.94	0.101
489.40	0.099
489.85	0.102
490.31	0.099
490.77	0.097
491.22	0.099
491.68	0.100
492.13	0.098
492.59	0.100
493.05	0.099
493.50	0.100
493.96	0.098
494.42	0.100
494.87	0.099
495.33	0.098
495.78	0.098
496.24	0.097
496.70	0.098
497.15	0.100
497.61	0.099
498.06	0.097
498.52	0.098
498.98	0.098
499.43	0.098
499.89	0.096
500.34	0.100
500.80	0.097
501.25	0.098
501.71	0.095
502.17	0.099
502.62	0.097
503.08	0.099
503.53	0.098
503.99	0.097
504.44	0.095
504.90	0.097
505.36	0.095
505.81	0.096
506.27	0.097
506.72	0.097
507.18	0.096
507.63	0.095
508.09	0.098
508.54	0.095
509.00	0.095
509.45	0.095
509.91	0.094
510.36	0.095
510.82	0.092
511.27	0.096
511.73	0.097
512.19	0.096
512.64	0.094
513.10	0.093
513.55	0.093
514.01	0.093
514.46	0.094
514.92	0.095
515.37	0.094
515.83	0.092
516.28	0.092
516.73	0.093
517.19	0.093
517.64	0.091
518.10	0.093
518.55	0.091
519.01	0.093
519.46	0.092
519.92	0.092
520.37	0.092
520.83	0.093
521.28	0.091
521.74	0.090
522.19	0.091
522.65	0.091
523.10	0.092
523.55	0.091
524.01	0.091
524.46	0.092
524.92	0.090
525.37	0.090
525.83	0.093
526.28	0.092
526.73	0.093
527.19	0.090
527.64	0.092
528.10	0.091
528.55	0.091
529.01	0.092
529.46	0.091
529.91	0.093
530.37	0.094
530.82	0.094
531.28	0.091
531.73	0.093
532.18	0.093
532.64	0.092
533.09	0.093
533.54	0.093
534.00	0.092
534.45	0.093
534.91	0.092
535.36	0.091
535.81	0.094
536.27	0.095
536.72	0.095
537.17	0.095
537.63	0.094
538.08	0.095
538.54	0.095
538.99	0.096
539.44	0.096
539.90	0.094
540.35	0.097
540.80	0.096
541.26	0.097
541.71	0.099
542.16	0.099
542.62	0.096
543.07	0.100
543.52	0.099
543.98	0.096
544.43	0.098
544.88	0.096
545.34	0.100
545.79	0.099
546.24	0.098
546.69	0.101
547.15	0.100
547.60	0.101
548.05	0.100
548.51	0.101
548.96	0.100
549.41	0.100
549.86	0.102
550.32	0.104
550.77	0.101
551.22	0.104
551.68	0.103
552.13	0.104
552.58	0.102
553.03	0.105
553.49	0.105
553.94	0.107
554.39	0.109
554.84	0.106
555.30	0.108
555.75	0.109
556.20	0.109
556.65	0.110
557.11	0.111
557.56	0.110
558.01	0.109
558.46	0.111
558.92	0.111
559.37	0.114
559.82	0.114
560.27	0.116
560.72	0.114
561.18	0.115
561.63	0.115
562.08	0.117
562.53	0.116
562.99	0.120
563.44	0.119
563.89	0.117
564.34	0.120
564.79	0.118
565.25	0.119
565.70	0.124
566.15	0.124
566.60	0.123
567.05	0.126
567.50	0.125
567.96	0.124
568.41	0.126
568.86	0.127
569.31	0.128
569.76	0.127
570.21	0.127
570.67	0.130
571.12	0.129
571.57	0.132
572.02	0.132
572.47	0.133
572.92	0.134
573.37	0.136
573.83	0.135
574.28	0.134
574.73	0.138
575.18	0.137
575.63	0.140
576.08	0.138
576.53	0.140
576.98	0.143
577.44	0.143
577.89	0.144
578.34	0.147
578.79	0.146
579.24	0.148
579.69	0.149
580.14	0.149
580.59	0.151
581.04	0.151
581.49	0.151
581.95	0.156
582.40	0.156
582.85	0.159
583.30	0.159
583.75	0.161
584.20	0.163
584.65	0.163
585.10	0.167
585.55	0.166
586.00	0.168
586.45	0.167
586.90	0.173
587.35	0.174
587.80	0.175
588.25	0.178
588.71	0.180
589.16	0.180
589.61	0.182
590.06	0.184
590.51	0.186
590.96	0.190
591.41	0.191
591.86	0.191
592.31	0.194
592.76	0.195
593.21	0.197
593.66	0.200
594.11	0.203
594.56	0.208
595.01	0.207
595.46	0.208
595.91	0.214
596.36	0.215
596.81	0.214
597.26	0.216
597.71	0.220
598.16	0.220
598.61	0.223
599.06	0.225
599.51	0.226
599.96	0.230
600.41	0.232
600.86	0.233
601.31	0.233
601.76	0.241
602.21	0.239
602.65	0.242
603.10	0.245
603.55	0.245
604.00	0.248
604.45	0.251
604.90	0.253
605.35	0.256
605.80	0.257
606.25	0.258
606.70	0.259
607.15	0.259
607.60	0.262
608.05	0.266
608.50	0.267
608.95	0.269
609.39	0.270
609.84	0.273
610.29	0.272
610.74	0.273
611.19	0.274
611.64	0.277
612.09	0.277
612.54	0.279
612.99	0.279
613.44	0.278
613.88	0.281
614.33	0.283
614.78	0.281
615.23	0.285
615.68	0.284
616.13	0.285
616.58	0.286
617.03	0.287
617.47	0.288
617.92	0.289
618.37	0.288
618.82	0.288
619.27	0.289
619.72	0.289
620.17	0.290
620.61	0.291
621.06	0.291
621.51	0.294
621.96	0.293
622.41	0.292
622.86	0.294
623.30	0.293
623.75	0.295
624.20	0.297
624.65	0.300
625.10	0.300
625.54	0.298
625.99	0.301
626.44	0.301
626.89	0.304
627.34	0.304
627.78	0.304
628.23	0.305
628.68	0.307
629.13	0.309
629.58	0.310
630.02	0.311
630.47	0.313
630.92	0.314
631.37	0.315
631.81	0.317
632.26	0.319
632.71	0.321
633.16	0.323
633.61	0.324
634.05	0.328
634.50	0.329
634.95	0.333
635.40	0.337
635.84	0.336
636.29	0.338
636.74	0.340
637.18	0.346
637.63	0.348
638.08	0.348
638.53	0.352
638.97	0.355
639.42	0.356
639.87	0.362
640.32	0.365
640.76	0.366
641.21	0.369
641.66	0.372
642.10	0.376
642.55	0.380
643.00	0.384
643.44	0.386
643.89	0.388
644.34	0.391
644.79	0.398
645.23	0.400
645.68	0.406
646.13	0.408
646.57	0.413
647.02	0.417
647.47	0.418
647.91	0.422
648.36	0.428
648.81	0.428
649.25	0.428
649.70	0.435
650.15	0.437
650.59	0.443
651.04	0.446
651.48	0.449
651.93	0.451
652.38	0.456
652.82	0.457
653.27	0.461
653.72	0.466
654.16	0.467
654.61	0.472
655.06	0.474
655.50	0.476
655.95	0.478
656.39	0.481
656.84	0.483
657.29	0.487
657.73	0.489
658.18	0.493
658.62	0.495
659.07	0.495
659.52	0.500
659.96	0.501
660.41	0.500
660.85	0.502
661.30	0.507
661.74	0.506
662.19	0.506
662.64	0.511
663.08	0.513
663.53	0.512
663.97	0.510
664.42	0.511
664.86	0.512
665.31	0.512
665.75	0.516
666.20	0.509
666.65	0.512
667.09	0.508
667.54	0.506
667.98	0.505
668.43	0.502
668.87	0.501
669.32	0.498
669.76	0.495
670.21	0.491
670.65	0.488
671.10	0.482
671.54	0.480
671.99	0.475
672.43	0.467
672.88	0.462
673.32	0.457
673.77	0.447
674.21	0.440
674.66	0.432
675.10	0.427
675.55	0.419
675.99	0.413
676.44	0.403
676.88	0.396
677.33	0.389
677.77	0.377
678.22	0.369
678.66	0.365
679.11	0.350
679.55	0.343
679.99	0.334
680.44	0.328
680.88	0.316
681.33	0.308
681.77	0.296
682.22	0.288
682.66	0.280
683.11	0.272
683.55	0.263
683.99	0.255
684.44	0.248
684.88	0.240
685.33	0.231
685.77	0.224
686.21	0.218
686.66	0.209
687.10	0.203
687.55	0.197
687.99	0.190
688.44	0.183
688.88	0.177
689.32	0.170
689.77	0.165
690.21	0.160
690.65	0.156
691.10	0.148
691.54	0.143
691.99	0.139
692.43	0.135
692.87	0.129
693.32	0.126
693.76	0.123
694.20	0.121
694.65	0.114
695.09	0.113
695.53	0.109
695.98	0.107
696.42	0.103
696.86	0.099
697.31	0.098
697.75	0.096
698.19	0.092
698.64	0.088
699.08	0.091
699.52	0.087
699.97	0.085
700.41	0.084
700.85	0.082
701.30	0.078
701.74	0.078
702.18	0.075
702.63	0.075
703.07	0.072
703.51	0.072
703.96	0.070
704.40	0.069
704.84	0.066
705.28	0.067
705.73	0.066
706.17	0.066
706.61	0.065
707.06	0.064
707.50	0.064
707.94	0.060
708.38	0.063
708.83	0.061
709.27	0.058
709.71	0.059
710.15	0.061
710.60	0.058
711.04	0.059
711.48	0.059
711.92	0.059
712.37	0.056
712.81	0.055
713.25	0.055
713.69	0.056
714.13	0.053
714.58	0.052
715.02	0.053
715.46	0.054
715.90	0.053
716.35	0.056
716.79	0.054
717.23	0.054
717.67	0.053
718.11	0.051
718.56	0.050
719.00	0.052
719.44	0.052
719.88	0.052
720.32	0.052
720.76	0.052
721.21	0.049
721.65	0.053
722.09	0.052
722.53	0.050
722.97	0.053
723.41	0.053
723.86	0.053
724.30	0.053
724.74	0.053
725.18	0.051
725.62	0.053
726.06	0.054
726.50	0.053
726.95	0.050
727.39	0.051
727.83	0.051
728.27	0.052
728.71	0.051
729.15	0.051
729.59	0.052
730.03	0.055
730.48	0.056
730.92	0.052
731.36	0.053
731.80	0.052
732.24	0.052
732.68	0.052
733.12	0.052
733.56	0.053
734.00	0.054
734.44	0.052
734.89	0.056
735.33	0.055
735.77	0.054
736.21	0.052
736.65	0.052
737.09	0.052
737.53	0.057
737.97	0.054
738.41	0.053
738.85	0.056
739.29	0.055
739.73	0.051
740.17	0.055
740.61	0.053
741.05	0.055
741.49	0.055
741.93	0.053
742.37	0.053
742.81	0.053
743.26	0.053
743.70	0.051
744.14	0.057
744.58	0.056
745.02	0.052
745.46	0.056
745.90	0.053
746.34	0.054
746.78	0.054
747.22	0.054
747.66	0.052
748.10	0.054
748.54	0.054
748.98	0.052
749.42	0.056
749.86	0.053
750.29	0.054
750.73	0.055
751.17	0.051
751.61	0.053
752.05	0.054
752.49	0.049
752.93	0.052
753.37	0.054
753.81	0.053
754.25	0.049
754.69	0.051
755.13	0.051
755.57	0.050
756.01	0.049
756.45	0.051
756.89	0.056
757.33	0.052
757.77	0.050
758.21	0.050
758.64	0.051
759.08	0.051
759.52	0.053
759.96	0.050
760.40	0.050
760.84	0.052
761.28	0.052
761.72	0.052
762.16	0.053
762.60	0.054
763.03	0.049
763.47	0.050
763.91	0.051
764.35	0.051
764.79	0.052
765.23	0.052
765.67	0.053
766.11	0.051
766.54	0.051
766.98	0.051
767.42	0.051
767.86	0.047
768.30	0.050
768.74	0.052
769.17	0.051
769.61	0.054
770.05	0.051
770.49	0.051
770.93	0.054
771.37	0.051
771.80	0.050
772.24	0.053
772.68	0.054
773.12	0.049
773.56	0.053
774.00	0.053
774.43	0.051
774.87	0.051
775.31	0.050
775.75	0.051
776.19	0.049
776.62	0.050
777.06	0.050
777.50	0.050
777.94	0.051
778.37	0.049
778.81	0.050
779.25	0.051
779.69	0.053
780.13	0.050
780.56	0.051
781.00	0.051
781.44	0.050
781.88	0.052
782.31	0.054
782.75	0.054
783.19	0.053
783.63	0.050
784.06	0.048
784.50	0.049
784.94	0.052
785.37	0.050
785.81	0.051
786.25	0.049
786.69	0.054
787.12	0.053
787.56	0.048
788.00	0.049
788.43	0.048
788.87	0.052
789.31	0.051
789.75	0.053
790.18	0.053
790.62	0.052
791.06	0.048
791.49	0.047
791.93	0.048
792.37	0.047
792.80	0.048
793.24	0.051
793.68	0.050
794.11	0.049
794.55	0.049
794.99	0.049
795.42	0.043
795.86	0.051
796.30	0.053
796.73	0.051
797.17	0.049
797.61	0.048
798.04	0.052
798.48	0.049
798.91	0.051
799.35	0.050
799.79	0.051
800.22	0.046
800.66	0.048
801.10	0.053
801.53	0.051
801.97	0.051
802.40	0.049
802.84	0.050
803.28	0.050
803.71	0.052
804.15	0.049
804.58	0.049
805.02	0.046
805.46	0.053
805.89	0.052
806.33	0.047
806.76	0.046
807.20	0.045
807.63	0.048
808.07	0.050
808.51	0.043
808.94	0.051
809.38	0.048
809.81	0.046
810.25	0.050
810.68	0.050
811.12	0.046
811.55	0.046
811.99	0.046
812.42	0.048
812.86	0.049
813.29	0.050
813.73	0.044
814.17	0.049
814.60	0.049
815.04	0.049
815.47	0.048
815.91	0.049
816.34	0.047
816.78	0.048
817.21	0.047
817.65	0.045
818.08	0.047
818.52	0.056
818.95	0.052
819.39	0.047
819.82	0.046
820.25	0.050
820.69	0.048
821.12	0.047
821.56	0.052
821.99	0.046
822.43	0.051
822.86	0.043
823.30	0.045
823.73	0.048
824.17	0.047
824.60	0.051
825.04	0.046
825.47	0.049
825.90	0.050
826.34	0.048
826.77	0.052
827.21	0.048
827.64	0.051
828.08	0.053
828.51	0.050
828.94	0.048
829.38	0.053
829.81	0.057
830.25	0.048
830.68	0.050
831.11	0.053
831.55	0.055
831.98	0.050
832.42	0.051
832.85	0.059
833.28	0.054
833.72	0.057
834.15	0.059
834.58	0.057
835.02	0.052
835.45	0.050
835.88	0.052
836.32	0.056
836.75	0.048
837.19	0.055
837.62	0.054
838.05	0.056
838.49	0.058
838.92	0.056
839.35	0.057
839.79	0.059
840.22	0.054
840.65	0.060
841.09	0.057
841.52	0.055
841.95	0.057
842.39	0.053
842.82	0.060
843.25	0.052
843.68	0.062
844.12	0.058
844.55	0.054
844.98	0.059
845.42	0.059
845.85	0.060
846.28	0.057
846.71	0.065
847.15	0.064
847.58	0.058
848.01	0.052
848.45	0.061
848.88	0.058
849.31	0.056
849.74	0.051
850.18	0.058
850.61	0.057
851.04	0.058
851.47	0.057
851.91	0.066
852.34	0.061
852.77	0.065
853.20	0.063
853.64	0.063
854.07	0.056
854.50	0.055
854.93	0.062
855.36	0.055
855.80	0.053
856.23	0.061
856.66	0.059
857.09	0.056
857.52	0.060
857.96	0.056
858.39	0.062
858.82	0.058
859.25	0.060
859.68	0.058
860.12	0.055
860.55	0.054
860.98	0.069
861.41	0.057
861.84	0.063
862.27	0.058
862.71	0.063
863.14	0.062
863.57	0.052
864.00	0.063
864.43	0.064
864.86	0.061
865.30	0.061
865.73	0.063
866.16	0.061
866.59	0.058
867.02	0.063
867.45	0.062
867.88	0.066
868.31	0.061
868.75	0.061
869.18	0.061
869.61	0.056
870.04	0.060
870.47	0.058
870.90	0.066
871.33	0.061
871.76	0.055
872.19	0.063
872.62	0.066
873.06	0.057
873.49	0.063
873.92	0.068
874.35	0.062
874.78	0.066
875.21	0.068
875.64	0.063
876.07	0.063
876.50	0.067
876.93	0.066
877.36	0.068
877.79	0.062
878.22	0.072
878.65	0.070
879.08	0.068
879.51	0.064
879.94	0.069
880.37	0.060
880.80	0.060
881.23	0.064
881.67	0.062
882.10	0.065
882.53	0.066
882.96	0.066
883.39	0.067
883.82	0.066
884.25	0.066
884.68	0.073
885.11	0.070
885.54	0.073
885.97	0.073
886.39	0.064
886.82	0.074
887.25	0.065
887.68	0.068
888.11	0.068
888.54	0.074
888.97	0.069
889.40	0.069
889.83	0.073
890.26	0.070
890.69	0.071
891.12	0.069
891.55	0.072
891.98	0.068
892.41	0.074
892.84	0.072
893.27	0.069
893.70	0.071
894.13	0.074
894.56	0.076
894.98	0.074
895.41	0.072
895.84	0.075
896.27	0.075
896.70	0.076
897.13	0.075
897.56	0.072
897.99	0.067
898.42	0.077
898.85	0.080
899.27	0.069
899.70	0.070
900.13	0.072
900.56	0.077
900.99	0.075
901.42	0.079
901.85	0.078
902.28	0.076
902.70	0.071
903.13	0.074
903.56	0.075
903.99	0.075
904.42	0.068
904.85	0.071
905.27	0.073
905.70	0.078
906.13	0.076
906.56	0.074
906.99	0.076
907.42	0.076
907.84	0.071
908.27	0.075
908.70	0.077
909.13	0.075
909.56	0.078
909.98	0.070
910.41	0.075
910.84	0.072
911.27	0.078
911.70	0.077
912.12	0.074
912.55	0.075
912.98	0.077
913.41	0.072
913.84	0.075
914.26	0.075
914.69	0.076
915.12	0.074
915.55	0.069
915.97	0.080
916.40	0.077
916.83	0.076
917.26	0.081
917.68	0.080
918.11	0.074
918.54	0.074
918.97	0.077
919.39	0.074
919.82	0.076
920.25	0.078
920.67	0.078
921.10	0.080
921.53	0.080
921.96	0.079
922.38	0.078
922.81	0.079
923.24	0.078
923.66	0.080
924.09	0.081
924.52	0.084
924.94	0.083
925.37	0.083
925.80	0.083
926.22	0.084
926.65	0.086
927.08	0.086
927.50	0.085
927.93	0.089
928.36	0.084
928.78	0.088
929.21	0.088
929.64	0.088
930.06	0.089
930.49	0.090
930.92	0.089
931.34	0.098
931.77	0.095
932.20	0.094
932.62	0.094
933.05	0.095
933.47	0.099
933.90	0.098
934.33	0.102
934.75	0.106
935.18	0.101
935.61	0.103
936.03	0.110
936.46	0.104
936.88	0.104
937.31	0.109
937.73	0.113
938.16	0.112
938.59	0.114
939.01	0.114
939.44	0.120
939.86	0.113
940.29	0.120
940.71	0.120
941.14	0.128
941.57	0.125
941.99	0.129
942.42	0.131
942.84	0.131
943.27	0.135
943.69	0.136
944.12	0.142
944.54	0.140
944.97	0.138
945.39	0.146
945.82	0.149
946.24	0.142
946.67	0.145
947.09	0.157
947.52	0.150
947.94	0.158
948.37	0.154
948.79	0.165
949.22	0.159
949.64	0.164
950.07	0.167
950.49	0.169
950.92	0.173
951.34	0.177
951.77	0.184
952.19	0.175
952.62	0.177
953.04	0.185
953.47	0.192
953.89	0.189
954.32	0.192
954.74	0.201
955.17	0.204
955.59	0.199
956.01	0.209
956.44	0.205
956.86	0.206
957.29	0.214
957.71	0.218
958.14	0.218
958.56	0.217
958.98	0.224
959.41	0.226
959.83	0.226
960.26	0.226
960.68	0.225
961.10	0.230
961.53	0.229
961.95	0.228
962.38	0.239
962.80	0.236
963.22	0.239
963.65	0.237
964.07	0.233
964.50	0.240
964.92	0.230
965.34	0.241
965.77	0.239
966.19	0.237
966.61	0.247
967.04	0.247
967.46	0.239
967.88	0.244
968.31	0.238
968.73	0.241
969.15	0.241
969.58	0.244
970.00	0.246
970.42	0.242
970.85	0.244
971.27	0.247
971.69	0.249
972.12	0.255
972.54	0.243
972.96	0.254
973.39	0.251
973.81	0.246
974.23	0.255
974.65	0.248
975.08	0.246
975.50	0.247
975.92	0.247
976.35	0.252
976.77	0.245
977.19	0.249
977.61	0.254
978.04	0.249
978.46	0.253
978.88	0.249
979.30	0.251
979.73	0.245
980.15	0.251
980.57	0.255
980.99	0.253
981.42	0.250
981.84	0.252
982.26	0.249
982.68	0.247
983.11	0.240
983.53	0.240
983.95	0.245
984.37	0.243
984.79	0.248
985.22	0.249
985.64	0.244
986.06	0.230
986.48	0.244
986.90	0.248
987.33	0.242
987.75	0.234
988.17	0.243
988.59	0.246
989.01	0.245
989.43	0.239
989.86	0.239
990.28	0.238
990.70	0.235
991.12	0.243
991.54	0.242
991.96	0.239
992.39	0.237
992.81	0.232
993.23	0.229
993.65	0.235
994.07	0.225
994.49	0.240
994.91	0.230
995.34	0.231
995.76	0.227
996.18	0.232
996.60	0.234
997.02	0.227
997.44	0.225
997.86	0.224
998.28	0.227
998.70	0.233
999.12	0.229
999.55	0.227
999.97	0.222
1000.39	0.227
1000.81	0.225
1001.23	0.224
1001.65	0.217
1002.07	0.218
1002.49	0.214
1002.91	0.221
1003.33	0.212
1003.75	0.222
1004.17	0.214
1004.59	0.212
1005.01	0.213
1005.43	0.218
1005.85	0.207
1006.28	0.210
1006.70	0.218
1007.12	0.210
1007.54	0.211
1007.96	0.209
1008.38	0.207
1008.80	0.203
1009.22	0.204
1009.64	0.206
1010.06	0.210
1010.48	0.206
1010.90	0.210
1011.32	0.206
1011.74	0.197
1012.16	0.203
1012.58	0.195
1013.00	0.202
1013.42	0.188
1013.84	0.194
1014.26	0.189
1014.67	0.199
1015.09	0.195
1015.51	0.185
1015.93	0.194
1016.35	0.194
1016.77	0.190
1017.19	0.190
1017.61	0.193
1018.03	0.182
1018.45	0.184
1018.87	0.186
1019.29	0.186
1019.71	0.183
1020.13	0.187
1020.55	0.191
1020.97	0.171
1021.38	0.168
1021.80	0.180
1022.22	0.187
1022.64	0.171
1023.06	0.168
1023.48	0.173
1023.90	0.176
1024.32	0.161
1024.74	0.175
1025.15	0.162
1025.57	0.171
1025.99	0.168
1026.41	0.154
1026.83	0.162
1027.25	0.158
1027.67	0.155
1028.08	0.162
1028.50	0.171
1028.92	0.148
1029.34	0.150
1029.76	0.154
1030.18	0.164
1030.60	0.144
1031.01	0.156
1031.43	0.154
1031.85	0.142
1032.27	0.141
1032.69	0.137
1033.10	0.152
1033.52	0.144
1033.94	0.134
1034.36	0.146
1034.78	0.144
1035.19	0.130
1035.61	0.142
1036.03	0.134
1036.45	0.139
1036.87	0.141
1037.28	0.137
1037.70	0.139
1038.12	0.127
1038.54	0.143
1038.95	0.145
1039.37	0.137
1039.79	0.132
1040.21	0.129
1040.62	0.148
1041.04	0.115
1041.46	0.131
1041.88	0.151
1042.29	0.142
1042.71	0.122
1043.13	0.129
1043.55	0.132
1043.96	0.120
1044.38	0.129
1044.80	0.119
1045.21	0.138
1045.63	0.118
1046.05	0.110
1046.47	0.129
1046.88	0.126
1047.30	0.123
1047.72	0.130
1048.13	0.134
1048.55	0.109
1048.97	0.126
1049.38	0.134
1049.80	0.120
1050.22	0.133
1050.63	0.088
1051.05	0.115
1051.47	0.133
1051.88	0.119
1052.30	0.120
1052.72	0.105
1053.13	0.109
1053.55	0.118
1053.97	0.116
1054.38	0.131
1054.80	0.101
1055.21	0.118
1055.63	0.124
1056.05	0.133
1056.46	0.084
1056.88	0.154
1057.29	0.127
1057.71	0.085
1058.13	0.128
1058.54	0.122
1058.96	0.101
1059.37	0.146
1059.79	0.150
1060.21	0.117
1060.62	0.129
1061.04	0.133
1061.45	0.176
1061.87	0.115
1062.28	0.132
1062.70	0.185
1063.12	0.118
1063.53	0.126
1063.95	0.130
1064.36	0.120
1064.78	0.152
1065.19	0.123
1065.61	0.081
1066.02	0.191
1066.44	0.177
1066.85	0.058
1067.27	0.186
1067.68	0.140
1068.10	0.194
1068.51	0.116
1068.93	0.113
1069.35	0.185
1069.76	0.107
1070.17	0.240
1070.59	0.287
1071.00	0.227
1071.42	0.075
1071.83	0.174
1072.25	0.158
1072.66	0.145
1073.08	0.191
1073.49	0.222
1073.91	0.055
1074.32	0.069
1074.74	0.057
1075.15	0.085
1075.57	0.239
1075.98	0.072
1076.40	0.281
1076.81	0.159
1077.22	0.154
1077.64	0.257
1078.05	0.385
1078.47	0.263
1078.88	0.115
1079.30	0.196
1079.71	0.265
1080.12	0.205
1080.54	0.073
1080.95	0.218
1081.37	0.165
1081.78	0.056
1082.19	0.409
1082.61	0.279
1083.02	0.268
1083.44	0.099
1083.85	0.214
1084.26	0.498
1084.68	0.460
1085.09	0.163
1085.50	1.051
1085.92	0.905
1086.33	0.050
1086.74	0.596
1087.16	0.402
1087.57	0.927
1087.98	0.335
1088.40	0.181
1088.81	0.627
1089.22	0.203
1089.64	0.199
1090.05	0.514
1090.46	0.168
1090.88	0.036
1091.29	0.147
1091.70	0.392
1092.12	0.416
1092.53	0.356
1092.94	0.236
1093.36	0.201
1093.77	0.753
1094.18	0.261
1094.59	0.142
1095.01	0.445
1095.42	-0.150
1095.83	0.555
1096.25	0.840
1096.66	-0.000
1097.07	0.050
1097.48	0.364
1097.90	0.463
1098.31	0.276
1098.72	0.151
1099.13	0.415
>>>>>End Processed Spectral Data<<<<<
