SpectraSuite Data File
++++++++++++++++++++++++++++++++++++
Date: Tue Jul 11 14:08:29 CEST 2017
User: IPCE
Dark Spectrum Present: Yes
Reference Spectrum Present: Yes
Number of Sampled Component Spectra: 1
Spectrometers: HR+C0708
Integration Time (usec): 1000 (HR+C0708)
Spectra Averaged: 10 (HR+C0708)
Boxcar Smoothing: 0 (HR+C0708)
Correct for Electrical Dark: No (HR+C0708)
Strobe/Lamp Enabled: No (HR+C0708)
Correct for Detector Non-linearity: No (HR+C0708)
Correct for Stray Light: No (HR+C0708)
Number of Pixels in Processed Spectrum: 2048
>>>>>Begin Processed Spectral Data<<<<<
188.76	0.764
189.23	0.139
189.70	0.430
190.17	-0.031
190.64	0.113
191.12	0.371
191.59	0.347
192.06	0.245
192.53	0.710
193.01	0.712
193.48	1.908
193.95	-0.194
194.42	0.114
194.90	-0.000
195.37	-0.174
195.84	0.593
196.31	0.326
196.78	0.738
197.26	-0.029
197.73	0.126
198.20	0.144
198.67	-0.447
199.14	-0.344
199.62	0.535
200.09	0.943
200.56	0.155
201.03	0.310
201.50	0.278
201.97	0.319
202.45	0.214
202.92	0.314
203.39	0.361
203.86	0.281
204.33	0.241
204.80	0.487
205.28	0.522
205.75	0.190
206.22	0.315
206.69	0.360
207.16	0.219
207.63	0.309
208.11	0.443
208.58	0.386
209.05	0.344
209.52	0.514
209.99	0.381
210.46	0.519
210.93	0.241
211.41	0.289
211.88	0.714
212.35	0.245
212.82	0.329
213.29	0.518
213.76	0.300
214.23	0.247
214.70	0.465
215.18	0.336
215.65	0.454
216.12	0.262
216.59	0.360
217.06	0.642
217.53	0.198
218.00	0.294
218.47	0.653
218.94	0.436
219.41	0.339
219.89	0.364
220.36	0.432
220.83	0.513
221.30	0.353
221.77	0.400
222.24	0.565
222.71	0.331
223.18	0.460
223.65	0.779
224.12	0.576
224.59	0.507
225.06	0.535
225.54	0.621
226.01	0.695
226.48	0.559
226.95	0.825
227.42	0.971
227.89	0.714
228.36	0.829
228.83	0.925
229.30	0.984
229.77	1.053
230.24	1.530
230.71	1.240
231.18	1.175
231.65	1.162
232.12	1.293
232.59	1.557
233.06	1.258
233.53	1.569
234.00	1.464
234.47	1.518
234.94	1.571
235.41	1.536
235.88	1.784
236.35	1.693
236.82	1.675
237.29	1.797
237.76	1.809
238.23	1.716
238.70	1.793
239.17	2.064
239.64	2.092
240.11	1.907
240.58	1.944
241.05	2.030
241.52	2.058
241.99	1.998
242.46	2.259
242.93	2.236
243.40	2.040
243.87	2.238
244.34	2.217
244.81	2.134
245.28	2.197
245.75	2.286
246.22	2.039
246.69	2.120
247.16	2.338
247.63	2.335
248.10	2.412
248.57	2.082
249.04	2.224
249.51	2.318
249.98	2.152
250.45	2.219
250.92	2.109
251.39	2.168
251.85	1.989
252.32	1.887
252.79	1.813
253.26	1.754
253.73	1.615
254.20	1.555
254.67	1.483
255.14	1.371
255.61	1.346
256.08	1.284
256.55	1.222
257.02	1.182
257.49	1.151
257.95	1.106
258.42	1.070
258.89	1.036
259.36	1.011
259.83	0.990
260.30	0.959
260.77	0.944
261.24	0.927
261.71	0.904
262.17	0.883
262.64	0.878
263.11	0.867
263.58	0.846
264.05	0.829
264.52	0.819
264.99	0.808
265.46	0.795
265.92	0.786
266.39	0.779
266.86	0.763
267.33	0.754
267.80	0.749
268.27	0.740
268.74	0.725
269.20	0.719
269.67	0.711
270.14	0.708
270.61	0.696
271.08	0.695
271.55	0.687
272.01	0.682
272.48	0.676
272.95	0.672
273.42	0.667
273.89	0.657
274.36	0.651
274.82	0.646
275.29	0.646
275.76	0.638
276.23	0.638
276.70	0.634
277.16	0.632
277.63	0.628
278.10	0.627
278.57	0.620
279.04	0.615
279.50	0.613
279.97	0.615
280.44	0.611
280.91	0.611
281.38	0.611
281.84	0.608
282.31	0.607
282.78	0.608
283.25	0.608
283.72	0.606
284.18	0.606
284.65	0.610
285.12	0.604
285.59	0.606
286.05	0.603
286.52	0.609
286.99	0.605
287.46	0.606
287.92	0.611
288.39	0.607
288.86	0.605
289.33	0.604
289.79	0.606
290.26	0.606
290.73	0.606
291.20	0.598
291.66	0.603
292.13	0.599
292.60	0.594
293.07	0.592
293.53	0.587
294.00	0.583
294.47	0.576
294.93	0.572
295.40	0.567
295.87	0.557
296.34	0.553
296.80	0.548
297.27	0.537
297.74	0.524
298.20	0.521
298.67	0.516
299.14	0.506
299.60	0.497
300.07	0.487
300.54	0.479
301.01	0.475
301.47	0.465
301.94	0.456
302.41	0.451
302.87	0.440
303.34	0.434
303.81	0.427
304.27	0.416
304.74	0.411
305.21	0.406
305.67	0.400
306.14	0.392
306.61	0.384
307.07	0.379
307.54	0.376
308.01	0.369
308.47	0.365
308.94	0.361
309.40	0.355
309.87	0.352
310.34	0.352
310.80	0.347
311.27	0.343
311.74	0.337
312.20	0.337
312.67	0.333
313.13	0.329
313.60	0.328
314.07	0.325
314.53	0.321
315.00	0.322
315.47	0.318
315.93	0.319
316.40	0.315
316.86	0.313
317.33	0.310
317.80	0.307
318.26	0.307
318.73	0.304
319.19	0.305
319.66	0.300
320.13	0.297
320.59	0.295
321.06	0.295
321.52	0.295
321.99	0.291
322.45	0.287
322.92	0.288
323.39	0.284
323.85	0.282
324.32	0.281
324.78	0.278
325.25	0.278
325.71	0.274
326.18	0.273
326.64	0.271
327.11	0.273
327.58	0.271
328.04	0.267
328.51	0.261
328.97	0.267
329.44	0.266
329.90	0.260
330.37	0.257
330.83	0.257
331.30	0.255
331.76	0.254
332.23	0.249
332.69	0.251
333.16	0.248
333.62	0.248
334.09	0.246
334.56	0.246
335.02	0.241
335.49	0.243
335.95	0.240
336.42	0.236
336.88	0.235
337.35	0.234
337.81	0.232
338.28	0.233
338.74	0.231
339.20	0.231
339.67	0.230
340.13	0.227
340.60	0.227
341.06	0.227
341.53	0.224
341.99	0.223
342.46	0.224
342.92	0.223
343.39	0.222
343.85	0.215
344.32	0.215
344.78	0.215
345.25	0.214
345.71	0.214
346.17	0.214
346.64	0.211
347.10	0.211
347.57	0.207
348.03	0.206
348.50	0.202
348.96	0.198
349.43	0.199
349.89	0.200
350.35	0.193
350.82	0.200
351.28	0.189
351.75	0.189
352.21	0.189
352.67	0.185
353.14	0.183
353.60	0.180
354.07	0.174
354.53	0.173
355.00	0.171
355.46	0.164
355.92	0.162
356.39	0.158
356.85	0.154
357.31	0.155
357.78	0.145
358.24	0.142
358.71	0.141
359.17	0.134
359.63	0.131
360.10	0.128
360.56	0.119
361.03	0.117
361.49	0.120
361.95	0.114
362.42	0.112
362.88	0.110
363.34	0.110
363.81	0.107
364.27	0.106
364.73	0.103
365.20	0.105
365.66	0.103
366.12	0.105
366.59	0.100
367.05	0.101
367.51	0.101
367.98	0.099
368.44	0.101
368.90	0.098
369.37	0.097
369.83	0.099
370.29	0.099
370.76	0.095
371.22	0.098
371.68	0.099
372.15	0.095
372.61	0.095
373.07	0.099
373.54	0.094
374.00	0.098
374.46	0.097
374.92	0.096
375.39	0.095
375.85	0.092
376.31	0.096
376.78	0.096
377.24	0.093
377.70	0.094
378.16	0.096
378.63	0.093
379.09	0.093
379.55	0.092
380.01	0.091
380.48	0.091
380.94	0.093
381.40	0.091
381.87	0.092
382.33	0.090
382.79	0.090
383.25	0.093
383.72	0.092
384.18	0.089
384.64	0.091
385.10	0.089
385.56	0.087
386.03	0.089
386.49	0.091
386.95	0.086
387.41	0.091
387.88	0.088
388.34	0.090
388.80	0.089
389.26	0.087
389.72	0.089
390.19	0.089
390.65	0.088
391.11	0.089
391.57	0.089
392.04	0.087
392.50	0.086
392.96	0.087
393.42	0.089
393.88	0.088
394.34	0.086
394.81	0.085
395.27	0.084
395.73	0.087
396.19	0.086
396.65	0.087
397.12	0.084
397.58	0.084
398.04	0.086
398.50	0.086
398.96	0.084
399.42	0.088
399.89	0.084
400.35	0.082
400.81	0.084
401.27	0.082
401.73	0.084
402.19	0.083
402.65	0.084
403.12	0.082
403.58	0.080
404.04	0.079
404.50	0.080
404.96	0.081
405.42	0.079
405.88	0.080
406.34	0.079
406.81	0.079
407.27	0.078
407.73	0.079
408.19	0.078
408.65	0.077
409.11	0.078
409.57	0.076
410.03	0.081
410.49	0.074
410.96	0.073
411.42	0.075
411.88	0.074
412.34	0.076
412.80	0.074
413.26	0.074
413.72	0.077
414.18	0.073
414.64	0.070
415.10	0.076
415.56	0.072
416.02	0.072
416.48	0.073
416.95	0.075
417.41	0.075
417.87	0.072
418.33	0.070
418.79	0.074
419.25	0.073
419.71	0.075
420.17	0.074
420.63	0.072
421.09	0.073
421.55	0.071
422.01	0.073
422.47	0.073
422.93	0.072
423.39	0.075
423.85	0.073
424.31	0.072
424.77	0.070
425.23	0.071
425.69	0.069
426.15	0.069
426.61	0.071
427.07	0.071
427.53	0.072
427.99	0.071
428.45	0.071
428.91	0.071
429.37	0.069
429.83	0.070
430.29	0.070
430.75	0.070
431.21	0.070
431.67	0.070
432.13	0.069
432.59	0.069
433.05	0.068
433.51	0.071
433.97	0.068
434.43	0.070
434.89	0.068
435.35	0.069
435.81	0.065
436.27	0.067
436.73	0.073
437.19	0.068
437.65	0.067
438.11	0.067
438.57	0.070
439.03	0.065
439.48	0.066
439.94	0.067
440.40	0.066
440.86	0.066
441.32	0.064
441.78	0.065
442.24	0.066
442.70	0.067
443.16	0.067
443.62	0.071
444.08	0.066
444.54	0.065
444.99	0.065
445.45	0.069
445.91	0.065
446.37	0.065
446.83	0.066
447.29	0.064
447.75	0.062
448.21	0.064
448.67	0.061
449.12	0.068
449.58	0.062
450.04	0.065
450.50	0.064
450.96	0.063
451.42	0.065
451.88	0.064
452.34	0.065
452.79	0.062
453.25	0.062
453.71	0.063
454.17	0.063
454.63	0.062
455.09	0.063
455.55	0.066
456.00	0.064
456.46	0.064
456.92	0.061
457.38	0.061
457.84	0.062
458.30	0.063
458.75	0.067
459.21	0.062
459.67	0.065
460.13	0.064
460.59	0.064
461.04	0.063
461.50	0.062
461.96	0.063
462.42	0.061
462.88	0.065
463.33	0.063
463.79	0.064
464.25	0.063
464.71	0.064
465.17	0.062
465.62	0.065
466.08	0.063
466.54	0.063
467.00	0.066
467.46	0.063
467.91	0.063
468.37	0.066
468.83	0.062
469.29	0.065
469.74	0.066
470.20	0.064
470.66	0.064
471.12	0.063
471.57	0.064
472.03	0.064
472.49	0.065
472.95	0.063
473.40	0.065
473.86	0.065
474.32	0.066
474.78	0.066
475.23	0.064
475.69	0.064
476.15	0.064
476.60	0.067
477.06	0.067
477.52	0.065
477.98	0.066
478.43	0.063
478.89	0.064
479.35	0.064
479.80	0.066
480.26	0.063
480.72	0.065
481.18	0.066
481.63	0.064
482.09	0.063
482.55	0.065
483.00	0.064
483.46	0.066
483.92	0.062
484.37	0.066
484.83	0.064
485.29	0.066
485.74	0.063
486.20	0.065
486.66	0.067
487.11	0.063
487.57	0.065
488.03	0.067
488.48	0.063
488.94	0.065
489.40	0.062
489.85	0.066
490.31	0.065
490.77	0.063
491.22	0.067
491.68	0.064
492.13	0.065
492.59	0.066
493.05	0.064
493.50	0.067
493.96	0.066
494.42	0.064
494.87	0.065
495.33	0.065
495.78	0.067
496.24	0.065
496.70	0.067
497.15	0.066
497.61	0.066
498.06	0.064
498.52	0.067
498.98	0.066
499.43	0.065
499.89	0.065
500.34	0.066
500.80	0.066
501.25	0.066
501.71	0.065
502.17	0.066
502.62	0.066
503.08	0.066
503.53	0.065
503.99	0.065
504.44	0.064
504.90	0.065
505.36	0.065
505.81	0.065
506.27	0.064
506.72	0.065
507.18	0.065
507.63	0.062
508.09	0.065
508.54	0.065
509.00	0.065
509.45	0.065
509.91	0.064
510.36	0.064
510.82	0.062
511.27	0.067
511.73	0.065
512.19	0.065
512.64	0.065
513.10	0.063
513.55	0.064
514.01	0.064
514.46	0.066
514.92	0.064
515.37	0.065
515.83	0.066
516.28	0.066
516.73	0.065
517.19	0.066
517.64	0.063
518.10	0.063
518.55	0.061
519.01	0.064
519.46	0.064
519.92	0.063
520.37	0.064
520.83	0.068
521.28	0.063
521.74	0.064
522.19	0.062
522.65	0.063
523.10	0.065
523.55	0.063
524.01	0.062
524.46	0.065
524.92	0.063
525.37	0.062
525.83	0.065
526.28	0.064
526.73	0.065
527.19	0.062
527.64	0.065
528.10	0.066
528.55	0.066
529.01	0.066
529.46	0.064
529.91	0.066
530.37	0.063
530.82	0.063
531.28	0.065
531.73	0.064
532.18	0.065
532.64	0.064
533.09	0.066
533.54	0.065
534.00	0.064
534.45	0.066
534.91	0.065
535.36	0.067
535.81	0.068
536.27	0.069
536.72	0.067
537.17	0.068
537.63	0.069
538.08	0.068
538.54	0.068
538.99	0.069
539.44	0.068
539.90	0.069
540.35	0.067
540.80	0.070
541.26	0.070
541.71	0.072
542.16	0.071
542.62	0.073
543.07	0.072
543.52	0.072
543.98	0.070
544.43	0.072
544.88	0.072
545.34	0.073
545.79	0.072
546.24	0.074
546.69	0.075
547.15	0.075
547.60	0.075
548.05	0.074
548.51	0.077
548.96	0.074
549.41	0.076
549.86	0.075
550.32	0.075
550.77	0.075
551.22	0.078
551.68	0.079
552.13	0.080
552.58	0.079
553.03	0.080
553.49	0.078
553.94	0.082
554.39	0.082
554.84	0.081
555.30	0.084
555.75	0.082
556.20	0.084
556.65	0.083
557.11	0.087
557.56	0.085
558.01	0.085
558.46	0.087
558.92	0.087
559.37	0.088
559.82	0.088
560.27	0.091
560.72	0.090
561.18	0.091
561.63	0.089
562.08	0.092
562.53	0.092
562.99	0.094
563.44	0.094
563.89	0.093
564.34	0.094
564.79	0.094
565.25	0.096
565.70	0.098
566.15	0.100
566.60	0.096
567.05	0.101
567.50	0.099
567.96	0.100
568.41	0.101
568.86	0.103
569.31	0.103
569.76	0.103
570.21	0.104
570.67	0.106
571.12	0.106
571.57	0.108
572.02	0.108
572.47	0.108
572.92	0.110
573.37	0.111
573.83	0.112
574.28	0.111
574.73	0.112
575.18	0.114
575.63	0.115
576.08	0.114
576.53	0.116
576.98	0.117
577.44	0.119
577.89	0.119
578.34	0.119
578.79	0.121
579.24	0.124
579.69	0.125
580.14	0.126
580.59	0.127
581.04	0.127
581.49	0.128
581.95	0.132
582.40	0.130
582.85	0.131
583.30	0.133
583.75	0.135
584.20	0.138
584.65	0.138
585.10	0.142
585.55	0.140
586.00	0.144
586.45	0.144
586.90	0.149
587.35	0.149
587.80	0.150
588.25	0.151
588.71	0.154
589.16	0.155
589.61	0.157
590.06	0.160
590.51	0.159
590.96	0.163
591.41	0.166
591.86	0.165
592.31	0.167
592.76	0.170
593.21	0.173
593.66	0.175
594.11	0.178
594.56	0.179
595.01	0.181
595.46	0.186
595.91	0.185
596.36	0.188
596.81	0.188
597.26	0.191
597.71	0.194
598.16	0.196
598.61	0.196
599.06	0.199
599.51	0.201
599.96	0.203
600.41	0.206
600.86	0.208
601.31	0.208
601.76	0.214
602.21	0.214
602.65	0.215
603.10	0.218
603.55	0.217
604.00	0.221
604.45	0.223
604.90	0.227
605.35	0.226
605.80	0.230
606.25	0.232
606.70	0.232
607.15	0.233
607.60	0.235
608.05	0.239
608.50	0.238
608.95	0.240
609.39	0.243
609.84	0.244
610.29	0.245
610.74	0.244
611.19	0.246
611.64	0.250
612.09	0.250
612.54	0.252
612.99	0.251
613.44	0.252
613.88	0.254
614.33	0.255
614.78	0.254
615.23	0.257
615.68	0.257
616.13	0.259
616.58	0.259
617.03	0.258
617.47	0.258
617.92	0.260
618.37	0.260
618.82	0.262
619.27	0.262
619.72	0.263
620.17	0.265
620.61	0.265
621.06	0.265
621.51	0.268
621.96	0.266
622.41	0.265
622.86	0.269
623.30	0.269
623.75	0.267
624.20	0.270
624.65	0.272
625.10	0.273
625.54	0.274
625.99	0.275
626.44	0.276
626.89	0.279
627.34	0.278
627.78	0.278
628.23	0.281
628.68	0.282
629.13	0.281
629.58	0.284
630.02	0.286
630.47	0.289
630.92	0.288
631.37	0.290
631.81	0.291
632.26	0.293
632.71	0.296
633.16	0.295
633.61	0.299
634.05	0.302
634.50	0.303
634.95	0.306
635.40	0.310
635.84	0.309
636.29	0.312
636.74	0.315
637.18	0.319
637.63	0.320
638.08	0.322
638.53	0.325
638.97	0.328
639.42	0.333
639.87	0.336
640.32	0.338
640.76	0.341
641.21	0.342
641.66	0.346
642.10	0.349
642.55	0.353
643.00	0.356
643.44	0.357
643.89	0.362
644.34	0.365
644.79	0.367
645.23	0.370
645.68	0.376
646.13	0.379
646.57	0.382
647.02	0.385
647.47	0.388
647.91	0.393
648.36	0.397
648.81	0.400
649.25	0.402
649.70	0.404
650.15	0.409
650.59	0.413
651.04	0.418
651.48	0.420
651.93	0.420
652.38	0.422
652.82	0.425
653.27	0.430
653.72	0.434
654.16	0.433
654.61	0.438
655.06	0.440
655.50	0.443
655.95	0.443
656.39	0.448
656.84	0.452
657.29	0.452
657.73	0.454
658.18	0.458
658.62	0.459
659.07	0.462
659.52	0.464
659.96	0.466
660.41	0.468
660.85	0.467
661.30	0.468
661.74	0.470
662.19	0.473
662.64	0.471
663.08	0.476
663.53	0.475
663.97	0.473
664.42	0.476
664.86	0.473
665.31	0.474
665.75	0.477
666.20	0.472
666.65	0.474
667.09	0.470
667.54	0.468
667.98	0.465
668.43	0.465
668.87	0.462
669.32	0.461
669.76	0.457
670.21	0.454
670.65	0.449
671.10	0.447
671.54	0.441
671.99	0.435
672.43	0.429
672.88	0.422
673.32	0.419
673.77	0.412
674.21	0.406
674.66	0.402
675.10	0.393
675.55	0.386
675.99	0.378
676.44	0.370
676.88	0.364
677.33	0.356
677.77	0.347
678.22	0.338
678.66	0.330
679.11	0.322
679.55	0.314
679.99	0.304
680.44	0.298
680.88	0.286
681.33	0.279
681.77	0.269
682.22	0.262
682.66	0.255
683.11	0.245
683.55	0.236
683.99	0.230
684.44	0.220
684.88	0.215
685.33	0.206
685.77	0.198
686.21	0.193
686.66	0.186
687.10	0.178
687.55	0.173
687.99	0.167
688.44	0.162
688.88	0.155
689.32	0.148
689.77	0.143
690.21	0.141
690.65	0.134
691.10	0.127
691.54	0.123
691.99	0.118
692.43	0.116
692.87	0.111
693.32	0.105
693.76	0.103
694.20	0.104
694.65	0.099
695.09	0.094
695.53	0.091
695.98	0.088
696.42	0.085
696.86	0.080
697.31	0.079
697.75	0.078
698.19	0.072
698.64	0.071
699.08	0.073
699.52	0.068
699.97	0.065
700.41	0.066
700.85	0.065
701.30	0.063
701.74	0.059
702.18	0.059
702.63	0.056
703.07	0.056
703.51	0.056
703.96	0.054
704.40	0.052
704.84	0.051
705.28	0.052
705.73	0.049
706.17	0.049
706.61	0.047
707.06	0.049
707.50	0.046
707.94	0.044
708.38	0.044
708.83	0.044
709.27	0.046
709.71	0.043
710.15	0.043
710.60	0.045
711.04	0.044
711.48	0.041
711.92	0.043
712.37	0.042
712.81	0.041
713.25	0.039
713.69	0.040
714.13	0.035
714.58	0.038
715.02	0.038
715.46	0.036
715.90	0.037
716.35	0.038
716.79	0.038
717.23	0.038
717.67	0.039
718.11	0.036
718.56	0.035
719.00	0.037
719.44	0.037
719.88	0.034
720.32	0.035
720.76	0.036
721.21	0.036
721.65	0.040
722.09	0.037
722.53	0.037
722.97	0.035
723.41	0.034
723.86	0.039
724.30	0.037
724.74	0.037
725.18	0.036
725.62	0.038
726.06	0.038
726.50	0.037
726.95	0.035
727.39	0.035
727.83	0.036
728.27	0.036
728.71	0.038
729.15	0.038
729.59	0.037
730.03	0.039
730.48	0.037
730.92	0.037
731.36	0.037
731.80	0.036
732.24	0.038
732.68	0.037
733.12	0.040
733.56	0.039
734.00	0.040
734.44	0.038
734.89	0.041
735.33	0.040
735.77	0.038
736.21	0.040
736.65	0.039
737.09	0.037
737.53	0.042
737.97	0.042
738.41	0.040
738.85	0.040
739.29	0.040
739.73	0.038
740.17	0.041
740.61	0.040
741.05	0.041
741.49	0.042
741.93	0.039
742.37	0.037
742.81	0.039
743.26	0.039
743.70	0.040
744.14	0.041
744.58	0.039
745.02	0.038
745.46	0.043
745.90	0.040
746.34	0.039
746.78	0.040
747.22	0.039
747.66	0.038
748.10	0.040
748.54	0.036
748.98	0.039
749.42	0.040
749.86	0.041
750.29	0.039
750.73	0.041
751.17	0.037
751.61	0.037
752.05	0.039
752.49	0.037
752.93	0.037
753.37	0.041
753.81	0.040
754.25	0.037
754.69	0.035
755.13	0.039
755.57	0.038
756.01	0.036
756.45	0.040
756.89	0.039
757.33	0.039
757.77	0.039
758.21	0.037
758.64	0.038
759.08	0.037
759.52	0.037
759.96	0.035
760.40	0.036
760.84	0.038
761.28	0.038
761.72	0.037
762.16	0.037
762.60	0.038
763.03	0.037
763.47	0.038
763.91	0.039
764.35	0.039
764.79	0.039
765.23	0.036
765.67	0.040
766.11	0.039
766.54	0.037
766.98	0.036
767.42	0.037
767.86	0.037
768.30	0.035
768.74	0.037
769.17	0.037
769.61	0.039
770.05	0.036
770.49	0.038
770.93	0.039
771.37	0.037
771.80	0.036
772.24	0.039
772.68	0.040
773.12	0.039
773.56	0.038
774.00	0.038
774.43	0.036
774.87	0.036
775.31	0.036
775.75	0.039
776.19	0.038
776.62	0.039
777.06	0.035
777.50	0.038
777.94	0.040
778.37	0.037
778.81	0.038
779.25	0.039
779.69	0.035
780.13	0.033
780.56	0.036
781.00	0.038
781.44	0.035
781.88	0.038
782.31	0.038
782.75	0.039
783.19	0.038
783.63	0.038
784.06	0.034
784.50	0.040
784.94	0.036
785.37	0.041
785.81	0.038
786.25	0.035
786.69	0.037
787.12	0.035
787.56	0.038
788.00	0.036
788.43	0.036
788.87	0.038
789.31	0.039
789.75	0.038
790.18	0.037
790.62	0.036
791.06	0.036
791.49	0.034
791.93	0.035
792.37	0.033
792.80	0.036
793.24	0.037
793.68	0.037
794.11	0.037
794.55	0.041
794.99	0.035
795.42	0.034
795.86	0.039
796.30	0.038
796.73	0.039
797.17	0.034
797.61	0.036
798.04	0.034
798.48	0.037
798.91	0.035
799.35	0.032
799.79	0.035
800.22	0.035
800.66	0.037
801.10	0.036
801.53	0.038
801.97	0.039
802.40	0.034
802.84	0.037
803.28	0.036
803.71	0.037
804.15	0.040
804.58	0.037
805.02	0.036
805.46	0.034
805.89	0.038
806.33	0.033
806.76	0.038
807.20	0.033
807.63	0.033
808.07	0.038
808.51	0.029
808.94	0.036
809.38	0.037
809.81	0.036
810.25	0.036
810.68	0.037
811.12	0.039
811.55	0.035
811.99	0.035
812.42	0.036
812.86	0.036
813.29	0.040
813.73	0.032
814.17	0.034
814.60	0.036
815.04	0.034
815.47	0.034
815.91	0.037
816.34	0.036
816.78	0.035
817.21	0.034
817.65	0.035
818.08	0.038
818.52	0.043
818.95	0.039
819.39	0.033
819.82	0.036
820.25	0.036
820.69	0.038
821.12	0.034
821.56	0.037
821.99	0.037
822.43	0.037
822.86	0.033
823.30	0.035
823.73	0.034
824.17	0.033
824.60	0.039
825.04	0.037
825.47	0.040
825.90	0.038
826.34	0.036
826.77	0.043
827.21	0.040
827.64	0.038
828.08	0.041
828.51	0.039
828.94	0.037
829.38	0.043
829.81	0.042
830.25	0.039
830.68	0.042
831.11	0.044
831.55	0.048
831.98	0.038
832.42	0.040
832.85	0.046
833.28	0.040
833.72	0.043
834.15	0.045
834.58	0.040
835.02	0.047
835.45	0.036
835.88	0.042
836.32	0.046
836.75	0.038
837.19	0.046
837.62	0.042
838.05	0.043
838.49	0.043
838.92	0.044
839.35	0.048
839.79	0.044
840.22	0.041
840.65	0.046
841.09	0.049
841.52	0.041
841.95	0.045
842.39	0.047
842.82	0.046
843.25	0.044
843.68	0.050
844.12	0.051
844.55	0.043
844.98	0.047
845.42	0.048
845.85	0.044
846.28	0.041
846.71	0.046
847.15	0.049
847.58	0.047
848.01	0.041
848.45	0.050
848.88	0.047
849.31	0.048
849.74	0.046
850.18	0.049
850.61	0.052
851.04	0.048
851.47	0.044
851.91	0.048
852.34	0.051
852.77	0.046
853.20	0.053
853.64	0.044
854.07	0.048
854.50	0.044
854.93	0.049
855.36	0.042
855.80	0.045
856.23	0.047
856.66	0.049
857.09	0.046
857.52	0.052
857.96	0.049
858.39	0.045
858.82	0.046
859.25	0.047
859.68	0.046
860.12	0.044
860.55	0.045
860.98	0.054
861.41	0.049
861.84	0.053
862.27	0.045
862.71	0.052
863.14	0.051
863.57	0.046
864.00	0.052
864.43	0.054
864.86	0.047
865.30	0.053
865.73	0.051
866.16	0.051
866.59	0.051
867.02	0.050
867.45	0.049
867.88	0.048
868.31	0.049
868.75	0.058
869.18	0.055
869.61	0.052
870.04	0.050
870.47	0.050
870.90	0.056
871.33	0.053
871.76	0.046
872.19	0.055
872.62	0.054
873.06	0.046
873.49	0.053
873.92	0.053
874.35	0.053
874.78	0.050
875.21	0.058
875.64	0.049
876.07	0.047
876.50	0.054
876.93	0.052
877.36	0.050
877.79	0.052
878.22	0.060
878.65	0.055
879.08	0.056
879.51	0.053
879.94	0.057
880.37	0.050
880.80	0.056
881.23	0.058
881.67	0.060
882.10	0.054
882.53	0.056
882.96	0.054
883.39	0.058
883.82	0.055
884.25	0.058
884.68	0.060
885.11	0.056
885.54	0.061
885.97	0.059
886.39	0.057
886.82	0.061
887.25	0.053
887.68	0.063
888.11	0.058
888.54	0.062
888.97	0.058
889.40	0.056
889.83	0.065
890.26	0.056
890.69	0.062
891.12	0.060
891.55	0.061
891.98	0.054
892.41	0.063
892.84	0.066
893.27	0.061
893.70	0.064
894.13	0.067
894.56	0.061
894.98	0.060
895.41	0.061
895.84	0.064
896.27	0.062
896.70	0.068
897.13	0.065
897.56	0.066
897.99	0.057
898.42	0.063
898.85	0.067
899.27	0.060
899.70	0.062
900.13	0.064
900.56	0.066
900.99	0.066
901.42	0.065
901.85	0.067
902.28	0.070
902.70	0.066
903.13	0.062
903.56	0.066
903.99	0.067
904.42	0.063
904.85	0.064
905.27	0.067
905.70	0.065
906.13	0.062
906.56	0.068
906.99	0.069
907.42	0.064
907.84	0.065
908.27	0.064
908.70	0.067
909.13	0.068
909.56	0.069
909.98	0.062
910.41	0.065
910.84	0.063
911.27	0.069
911.70	0.065
912.12	0.065
912.55	0.063
912.98	0.070
913.41	0.064
913.84	0.066
914.26	0.065
914.69	0.065
915.12	0.065
915.55	0.062
915.97	0.067
916.40	0.064
916.83	0.063
917.26	0.070
917.68	0.067
918.11	0.068
918.54	0.066
918.97	0.067
919.39	0.071
919.82	0.069
920.25	0.064
920.67	0.069
921.10	0.069
921.53	0.068
921.96	0.067
922.38	0.069
922.81	0.069
923.24	0.072
923.66	0.068
924.09	0.071
924.52	0.075
924.94	0.071
925.37	0.073
925.80	0.069
926.22	0.074
926.65	0.075
927.08	0.078
927.50	0.079
927.93	0.086
928.36	0.077
928.78	0.076
929.21	0.079
929.64	0.081
930.06	0.080
930.49	0.080
930.92	0.080
931.34	0.087
931.77	0.084
932.20	0.087
932.62	0.087
933.05	0.085
933.47	0.089
933.90	0.090
934.33	0.087
934.75	0.096
935.18	0.089
935.61	0.089
936.03	0.099
936.46	0.095
936.88	0.102
937.31	0.104
937.73	0.104
938.16	0.102
938.59	0.103
939.01	0.103
939.44	0.114
939.86	0.106
940.29	0.105
940.71	0.111
941.14	0.119
941.57	0.124
941.99	0.123
942.42	0.123
942.84	0.124
943.27	0.127
943.69	0.118
944.12	0.131
944.54	0.127
944.97	0.134
945.39	0.135
945.82	0.128
946.24	0.136
946.67	0.148
947.09	0.144
947.52	0.141
947.94	0.148
948.37	0.148
948.79	0.157
949.22	0.153
949.64	0.151
950.07	0.153
950.49	0.162
950.92	0.160
951.34	0.166
951.77	0.176
952.19	0.166
952.62	0.173
953.04	0.169
953.47	0.178
953.89	0.184
954.32	0.185
954.74	0.195
955.17	0.195
955.59	0.196
956.01	0.203
956.44	0.203
956.86	0.200
957.29	0.207
957.71	0.210
958.14	0.209
958.56	0.212
958.98	0.213
959.41	0.222
959.83	0.214
960.26	0.220
960.68	0.219
961.10	0.218
961.53	0.220
961.95	0.222
962.38	0.231
962.80	0.222
963.22	0.229
963.65	0.226
964.07	0.227
964.50	0.227
964.92	0.226
965.34	0.234
965.77	0.235
966.19	0.223
966.61	0.239
967.04	0.234
967.46	0.235
967.88	0.233
968.31	0.230
968.73	0.229
969.15	0.237
969.58	0.239
970.00	0.236
970.42	0.238
970.85	0.231
971.27	0.240
971.69	0.241
972.12	0.242
972.54	0.233
972.96	0.243
973.39	0.240
973.81	0.235
974.23	0.241
974.65	0.240
975.08	0.236
975.50	0.232
975.92	0.240
976.35	0.232
976.77	0.232
977.19	0.236
977.61	0.234
978.04	0.236
978.46	0.241
978.88	0.245
979.30	0.251
979.73	0.243
980.15	0.239
980.57	0.243
980.99	0.245
981.42	0.242
981.84	0.248
982.26	0.244
982.68	0.239
983.11	0.244
983.53	0.246
983.95	0.243
984.37	0.234
984.79	0.237
985.22	0.239
985.64	0.242
986.06	0.234
986.48	0.237
986.90	0.237
987.33	0.234
987.75	0.225
988.17	0.234
988.59	0.239
989.01	0.237
989.43	0.232
989.86	0.238
990.28	0.230
990.70	0.231
991.12	0.229
991.54	0.224
991.96	0.227
992.39	0.236
992.81	0.221
993.23	0.229
993.65	0.229
994.07	0.214
994.49	0.223
994.91	0.221
995.34	0.227
995.76	0.219
996.18	0.221
996.60	0.223
997.02	0.221
997.44	0.223
997.86	0.225
998.28	0.217
998.70	0.222
999.12	0.217
999.55	0.220
999.97	0.213
1000.39	0.216
1000.81	0.227
1001.23	0.213
1001.65	0.214
1002.07	0.216
1002.49	0.207
1002.91	0.206
1003.33	0.206
1003.75	0.217
1004.17	0.205
1004.59	0.203
1005.01	0.207
1005.43	0.213
1005.85	0.197
1006.28	0.207
1006.70	0.196
1007.12	0.200
1007.54	0.202
1007.96	0.204
1008.38	0.199
1008.80	0.190
1009.22	0.198
1009.64	0.191
1010.06	0.199
1010.48	0.201
1010.90	0.189
1011.32	0.191
1011.74	0.186
1012.16	0.180
1012.58	0.183
1013.00	0.193
1013.42	0.180
1013.84	0.178
1014.26	0.185
1014.67	0.194
1015.09	0.175
1015.51	0.173
1015.93	0.172
1016.35	0.200
1016.77	0.183
1017.19	0.185
1017.61	0.177
1018.03	0.171
1018.45	0.168
1018.87	0.172
1019.29	0.178
1019.71	0.170
1020.13	0.178
1020.55	0.174
1020.97	0.169
1021.38	0.165
1021.80	0.167
1022.22	0.175
1022.64	0.161
1023.06	0.155
1023.48	0.161
1023.90	0.160
1024.32	0.144
1024.74	0.162
1025.15	0.161
1025.57	0.162
1025.99	0.157
1026.41	0.145
1026.83	0.161
1027.25	0.141
1027.67	0.150
1028.08	0.157
1028.50	0.162
1028.92	0.149
1029.34	0.146
1029.76	0.145
1030.18	0.152
1030.60	0.160
1031.01	0.147
1031.43	0.148
1031.85	0.130
1032.27	0.144
1032.69	0.137
1033.10	0.143
1033.52	0.143
1033.94	0.148
1034.36	0.148
1034.78	0.135
1035.19	0.132
1035.61	0.133
1036.03	0.139
1036.45	0.129
1036.87	0.119
1037.28	0.159
1037.70	0.133
1038.12	0.127
1038.54	0.117
1038.95	0.142
1039.37	0.113
1039.79	0.120
1040.21	0.136
1040.62	0.128
1041.04	0.121
1041.46	0.117
1041.88	0.123
1042.29	0.121
1042.71	0.106
1043.13	0.126
1043.55	0.124
1043.96	0.100
1044.38	0.117
1044.80	0.122
1045.21	0.138
1045.63	0.103
1046.05	0.105
1046.47	0.133
1046.88	0.114
1047.30	0.097
1047.72	0.135
1048.13	0.124
1048.55	0.106
1048.97	0.110
1049.38	0.102
1049.80	0.118
1050.22	0.113
1050.63	0.096
1051.05	0.109
1051.47	0.104
1051.88	0.104
1052.30	0.134
1052.72	0.097
1053.13	0.104
1053.55	0.121
1053.97	0.123
1054.38	0.125
1054.80	0.088
1055.21	0.110
1055.63	0.110
1056.05	0.126
1056.46	0.067
1056.88	0.134
1057.29	0.116
1057.71	0.077
1058.13	0.114
1058.54	0.107
1058.96	0.108
1059.37	0.140
1059.79	0.122
1060.21	0.142
1060.62	0.104
1061.04	0.135
1061.45	0.145
1061.87	0.093
1062.28	0.107
1062.70	0.119
1063.12	0.134
1063.53	0.082
1063.95	0.098
1064.36	0.106
1064.78	0.149
1065.19	0.084
1065.61	0.104
1066.02	0.183
1066.44	0.164
1066.85	0.109
1067.27	0.198
1067.68	0.173
1068.10	0.106
1068.51	0.148
1068.93	0.161
1069.35	0.184
1069.76	0.089
1070.17	0.119
1070.59	0.237
1071.00	0.118
1071.42	0.140
1071.83	0.238
1072.25	0.163
1072.66	0.145
1073.08	0.159
1073.49	0.351
1073.91	0.161
1074.32	0.179
1074.74	0.157
1075.15	0.222
1075.57	0.326
1075.98	0.002
1076.40	0.292
1076.81	0.080
1077.22	0.014
1077.64	0.279
1078.05	0.392
1078.47	0.170
1078.88	0.167
1079.30	0.090
1079.71	0.281
1080.12	0.521
1080.54	0.227
1080.95	0.348
1081.37	0.252
1081.78	0.147
1082.19	0.185
1082.61	0.320
1083.02	0.077
1083.44	0.070
1083.85	0.117
1084.26	0.467
1084.68	0.076
1085.09	0.102
1085.50	0.389
1085.92	0.221
1086.33	-0.251
1086.74	0.469
1087.16	0.463
1087.57	0.288
1087.98	0.323
1088.40	0.094
1088.81	0.611
1089.22	0.181
1089.64	0.575
1090.05	0.514
1090.46	0.016
1090.88	0.129
1091.29	0.241
1091.70	0.510
1092.12	0.175
1092.53	0.278
1092.94	0.296
1093.36	0.278
1093.77	0.797
1094.18	0.009
1094.59	0.205
1095.01	0.524
1095.42	-0.235
1095.83	0.314
1096.25	0.508
1096.66	-0.024
1097.07	0.359
1097.48	0.497
1097.90	0.352
1098.31	0.403
1098.72	0.287
1099.13	1.149
>>>>>End Processed Spectral Data<<<<<
