SpectraSuite Data File
++++++++++++++++++++++++++++++++++++
Date: Tue Jul 11 14:52:59 CEST 2017
User: IPCE
Dark Spectrum Present: Yes
Reference Spectrum Present: Yes
Number of Sampled Component Spectra: 1
Spectrometers: HR+C0708
Integration Time (usec): 1000 (HR+C0708)
Spectra Averaged: 10 (HR+C0708)
Boxcar Smoothing: 0 (HR+C0708)
Correct for Electrical Dark: No (HR+C0708)
Strobe/Lamp Enabled: No (HR+C0708)
Correct for Detector Non-linearity: No (HR+C0708)
Correct for Stray Light: No (HR+C0708)
Number of Pixels in Processed Spectrum: 2048
>>>>>Begin Processed Spectral Data<<<<<
188.76	1.424
189.23	0.580
189.70	0.845
190.17	-0.000
190.64	0.559
191.12	0.747
191.59	0.244
192.06	0.747
192.53	0.355
193.01	-0.000
193.48	0.364
193.95	-0.034
194.42	1.079
194.90	0.590
195.37	0.123
195.84	0.389
196.31	-0.000
196.78	1.156
197.26	0.196
197.73	0.244
198.20	0.737
198.67	-0.000
199.14	-0.000
199.62	-0.000
200.09	0.566
200.56	0.240
201.03	0.415
201.50	0.406
201.97	0.488
202.45	0.478
202.92	0.312
203.39	0.418
203.86	0.338
204.33	0.426
204.80	0.440
205.28	0.393
205.75	0.370
206.22	0.428
206.69	0.494
207.16	0.284
207.63	0.371
208.11	0.321
208.58	0.519
209.05	0.561
209.52	0.608
209.99	0.497
210.46	0.349
210.93	0.340
211.41	0.537
211.88	0.364
212.35	0.326
212.82	0.565
213.29	0.633
213.76	0.415
214.23	0.429
214.70	0.628
215.18	0.556
215.65	0.419
216.12	0.439
216.59	0.445
217.06	0.535
217.53	0.325
218.00	0.370
218.47	0.475
218.94	0.523
219.41	0.482
219.89	0.397
220.36	0.675
220.83	0.446
221.30	0.570
221.77	0.578
222.24	0.477
222.71	0.402
223.18	0.449
223.65	0.615
224.12	0.539
224.59	0.606
225.06	0.602
225.54	0.882
226.01	0.728
226.48	0.580
226.95	0.936
227.42	0.820
227.89	0.802
228.36	0.859
228.83	1.061
229.30	1.035
229.77	1.190
230.24	1.344
230.71	1.204
231.18	1.239
231.65	1.278
232.12	1.363
232.59	1.440
233.06	1.342
233.53	1.542
234.00	1.403
234.47	1.597
234.94	1.621
235.41	1.574
235.88	1.878
236.35	1.619
236.82	1.919
237.29	1.935
237.76	1.890
238.23	1.942
238.70	2.068
239.17	2.035
239.64	2.127
240.11	1.968
240.58	1.951
241.05	2.062
241.52	2.086
241.99	2.061
242.46	2.195
242.93	2.214
243.40	2.095
243.87	2.213
244.34	2.171
244.81	2.165
245.28	2.230
245.75	2.254
246.22	2.089
246.69	2.201
247.16	2.316
247.63	2.422
248.10	2.414
248.57	2.180
249.04	2.352
249.51	2.300
249.98	2.163
250.45	2.250
250.92	2.054
251.39	2.071
251.85	1.955
252.32	1.840
252.79	1.776
253.26	1.658
253.73	1.585
254.20	1.512
254.67	1.410
255.14	1.325
255.61	1.274
256.08	1.213
256.55	1.154
257.02	1.108
257.49	1.066
257.95	1.037
258.42	0.998
258.89	0.975
259.36	0.944
259.83	0.915
260.30	0.893
260.77	0.879
261.24	0.854
261.71	0.834
262.17	0.819
262.64	0.810
263.11	0.796
263.58	0.776
264.05	0.765
264.52	0.754
264.99	0.738
265.46	0.728
265.92	0.726
266.39	0.708
266.86	0.699
267.33	0.691
267.80	0.682
268.27	0.677
268.74	0.666
269.20	0.656
269.67	0.646
270.14	0.641
270.61	0.634
271.08	0.629
271.55	0.623
272.01	0.615
272.48	0.613
272.95	0.605
273.42	0.599
273.89	0.590
274.36	0.582
274.82	0.586
275.29	0.579
275.76	0.574
276.23	0.573
276.70	0.568
277.16	0.563
277.63	0.560
278.10	0.556
278.57	0.554
279.04	0.546
279.50	0.549
279.97	0.548
280.44	0.543
280.91	0.540
281.38	0.534
281.84	0.536
282.31	0.533
282.78	0.534
283.25	0.529
283.72	0.530
284.18	0.529
284.65	0.528
285.12	0.527
285.59	0.525
286.05	0.524
286.52	0.522
286.99	0.522
287.46	0.526
287.92	0.522
288.39	0.523
288.86	0.520
289.33	0.518
289.79	0.517
290.26	0.520
290.73	0.518
291.20	0.514
291.66	0.513
292.13	0.506
292.60	0.504
293.07	0.500
293.53	0.499
294.00	0.492
294.47	0.487
294.93	0.481
295.40	0.479
295.87	0.474
296.34	0.468
296.80	0.462
297.27	0.451
297.74	0.445
298.20	0.441
298.67	0.436
299.14	0.430
299.60	0.424
300.07	0.414
300.54	0.407
301.01	0.404
301.47	0.392
301.94	0.390
302.41	0.384
302.87	0.375
303.34	0.370
303.81	0.364
304.27	0.360
304.74	0.354
305.21	0.346
305.67	0.343
306.14	0.339
306.61	0.332
307.07	0.327
307.54	0.322
308.01	0.319
308.47	0.316
308.94	0.310
309.40	0.308
309.87	0.305
310.34	0.302
310.80	0.299
311.27	0.298
311.74	0.293
312.20	0.295
312.67	0.290
313.13	0.285
313.60	0.284
314.07	0.284
314.53	0.283
315.00	0.280
315.47	0.279
315.93	0.276
316.40	0.276
316.86	0.273
317.33	0.274
317.80	0.270
318.26	0.269
318.73	0.269
319.19	0.268
319.66	0.267
320.13	0.263
320.59	0.261
321.06	0.261
321.52	0.261
321.99	0.258
322.45	0.256
322.92	0.259
323.39	0.254
323.85	0.253
324.32	0.252
324.78	0.252
325.25	0.253
325.71	0.248
326.18	0.248
326.64	0.248
327.11	0.245
327.58	0.248
328.04	0.244
328.51	0.241
328.97	0.242
329.44	0.241
329.90	0.238
330.37	0.235
330.83	0.234
331.30	0.233
331.76	0.233
332.23	0.229
332.69	0.230
333.16	0.228
333.62	0.229
334.09	0.229
334.56	0.224
335.02	0.221
335.49	0.220
335.95	0.220
336.42	0.217
336.88	0.216
337.35	0.216
337.81	0.216
338.28	0.209
338.74	0.213
339.20	0.212
339.67	0.208
340.13	0.209
340.60	0.209
341.06	0.208
341.53	0.205
341.99	0.204
342.46	0.203
342.92	0.200
343.39	0.203
343.85	0.202
344.32	0.196
344.78	0.198
345.25	0.198
345.71	0.199
346.17	0.196
346.64	0.197
347.10	0.198
347.57	0.195
348.03	0.194
348.50	0.190
348.96	0.192
349.43	0.191
349.89	0.192
350.35	0.192
350.82	0.195
351.28	0.188
351.75	0.194
352.21	0.184
352.67	0.186
353.14	0.186
353.60	0.181
354.07	0.180
354.53	0.182
355.00	0.180
355.46	0.179
355.92	0.181
356.39	0.176
356.85	0.176
357.31	0.175
357.78	0.176
358.24	0.173
358.71	0.173
359.17	0.170
359.63	0.174
360.10	0.173
360.56	0.166
361.03	0.167
361.49	0.166
361.95	0.166
362.42	0.165
362.88	0.165
363.34	0.162
363.81	0.163
364.27	0.162
364.73	0.161
365.20	0.163
365.66	0.163
366.12	0.162
366.59	0.157
367.05	0.160
367.51	0.160
367.98	0.158
368.44	0.159
368.90	0.156
369.37	0.158
369.83	0.158
370.29	0.156
370.76	0.156
371.22	0.158
371.68	0.155
372.15	0.156
372.61	0.154
373.07	0.156
373.54	0.156
374.00	0.159
374.46	0.153
374.92	0.156
375.39	0.155
375.85	0.152
376.31	0.151
376.78	0.156
377.24	0.153
377.70	0.153
378.16	0.153
378.63	0.152
379.09	0.152
379.55	0.152
380.01	0.150
380.48	0.150
380.94	0.151
381.40	0.152
381.87	0.152
382.33	0.151
382.79	0.152
383.25	0.151
383.72	0.149
384.18	0.148
384.64	0.150
385.10	0.149
385.56	0.149
386.03	0.147
386.49	0.151
386.95	0.146
387.41	0.147
387.88	0.145
388.34	0.147
388.80	0.147
389.26	0.147
389.72	0.148
390.19	0.148
390.65	0.146
391.11	0.145
391.57	0.147
392.04	0.142
392.50	0.146
392.96	0.146
393.42	0.146
393.88	0.144
394.34	0.143
394.81	0.143
395.27	0.143
395.73	0.146
396.19	0.142
396.65	0.145
397.12	0.141
397.58	0.143
398.04	0.145
398.50	0.146
398.96	0.146
399.42	0.144
399.89	0.142
400.35	0.140
400.81	0.141
401.27	0.139
401.73	0.138
402.19	0.144
402.65	0.140
403.12	0.139
403.58	0.137
404.04	0.135
404.50	0.140
404.96	0.138
405.42	0.138
405.88	0.139
406.34	0.138
406.81	0.138
407.27	0.134
407.73	0.135
408.19	0.134
408.65	0.135
409.11	0.137
409.57	0.134
410.03	0.134
410.49	0.131
410.96	0.134
411.42	0.131
411.88	0.132
412.34	0.133
412.80	0.133
413.26	0.134
413.72	0.135
414.18	0.132
414.64	0.131
415.10	0.131
415.56	0.129
416.02	0.127
416.48	0.132
416.95	0.132
417.41	0.133
417.87	0.130
418.33	0.129
418.79	0.130
419.25	0.127
419.71	0.128
420.17	0.129
420.63	0.130
421.09	0.129
421.55	0.127
422.01	0.130
422.47	0.133
422.93	0.131
423.39	0.131
423.85	0.132
424.31	0.129
424.77	0.127
425.23	0.128
425.69	0.126
426.15	0.127
426.61	0.127
427.07	0.129
427.53	0.127
427.99	0.128
428.45	0.126
428.91	0.126
429.37	0.124
429.83	0.126
430.29	0.128
430.75	0.130
431.21	0.126
431.67	0.127
432.13	0.123
432.59	0.125
433.05	0.122
433.51	0.127
433.97	0.123
434.43	0.126
434.89	0.124
435.35	0.121
435.81	0.123
436.27	0.120
436.73	0.127
437.19	0.123
437.65	0.123
438.11	0.123
438.57	0.125
439.03	0.119
439.48	0.120
439.94	0.125
440.40	0.122
440.86	0.120
441.32	0.119
441.78	0.122
442.24	0.121
442.70	0.122
443.16	0.118
443.62	0.124
444.08	0.120
444.54	0.120
444.99	0.120
445.45	0.120
445.91	0.117
446.37	0.116
446.83	0.117
447.29	0.120
447.75	0.118
448.21	0.119
448.67	0.115
449.12	0.120
449.58	0.118
450.04	0.120
450.50	0.118
450.96	0.117
451.42	0.115
451.88	0.114
452.34	0.118
452.79	0.116
453.25	0.116
453.71	0.117
454.17	0.116
454.63	0.113
455.09	0.117
455.55	0.119
456.00	0.116
456.46	0.115
456.92	0.115
457.38	0.114
457.84	0.112
458.30	0.113
458.75	0.116
459.21	0.114
459.67	0.113
460.13	0.112
460.59	0.116
461.04	0.113
461.50	0.114
461.96	0.114
462.42	0.114
462.88	0.113
463.33	0.114
463.79	0.116
464.25	0.116
464.71	0.116
465.17	0.115
465.62	0.116
466.08	0.115
466.54	0.117
467.00	0.116
467.46	0.112
467.91	0.113
468.37	0.115
468.83	0.116
469.29	0.115
469.74	0.113
470.20	0.115
470.66	0.114
471.12	0.116
471.57	0.115
472.03	0.116
472.49	0.117
472.95	0.116
473.40	0.114
473.86	0.120
474.32	0.116
474.78	0.114
475.23	0.116
475.69	0.115
476.15	0.114
476.60	0.114
477.06	0.117
477.52	0.115
477.98	0.116
478.43	0.115
478.89	0.118
479.35	0.116
479.80	0.115
480.26	0.115
480.72	0.113
481.18	0.116
481.63	0.115
482.09	0.115
482.55	0.116
483.00	0.114
483.46	0.112
483.92	0.113
484.37	0.115
484.83	0.115
485.29	0.114
485.74	0.113
486.20	0.113
486.66	0.115
487.11	0.113
487.57	0.114
488.03	0.117
488.48	0.115
488.94	0.114
489.40	0.113
489.85	0.112
490.31	0.115
490.77	0.111
491.22	0.114
491.68	0.113
492.13	0.115
492.59	0.112
493.05	0.113
493.50	0.114
493.96	0.113
494.42	0.114
494.87	0.113
495.33	0.112
495.78	0.114
496.24	0.113
496.70	0.113
497.15	0.111
497.61	0.114
498.06	0.113
498.52	0.112
498.98	0.113
499.43	0.113
499.89	0.113
500.34	0.114
500.80	0.112
501.25	0.113
501.71	0.112
502.17	0.114
502.62	0.112
503.08	0.113
503.53	0.113
503.99	0.110
504.44	0.112
504.90	0.110
505.36	0.112
505.81	0.111
506.27	0.113
506.72	0.111
507.18	0.113
507.63	0.110
508.09	0.113
508.54	0.110
509.00	0.111
509.45	0.112
509.91	0.112
510.36	0.113
510.82	0.110
511.27	0.113
511.73	0.113
512.19	0.113
512.64	0.112
513.10	0.111
513.55	0.110
514.01	0.111
514.46	0.113
514.92	0.111
515.37	0.112
515.83	0.112
516.28	0.111
516.73	0.112
517.19	0.112
517.64	0.111
518.10	0.111
518.55	0.109
519.01	0.111
519.46	0.110
519.92	0.109
520.37	0.110
520.83	0.111
521.28	0.108
521.74	0.111
522.19	0.108
522.65	0.112
523.10	0.111
523.55	0.111
524.01	0.110
524.46	0.111
524.92	0.107
525.37	0.110
525.83	0.112
526.28	0.111
526.73	0.110
527.19	0.109
527.64	0.110
528.10	0.111
528.55	0.109
529.01	0.113
529.46	0.108
529.91	0.110
530.37	0.112
530.82	0.110
531.28	0.110
531.73	0.111
532.18	0.110
532.64	0.108
533.09	0.111
533.54	0.111
534.00	0.112
534.45	0.111
534.91	0.109
535.36	0.110
535.81	0.112
536.27	0.111
536.72	0.113
537.17	0.112
537.63	0.111
538.08	0.111
538.54	0.112
538.99	0.113
539.44	0.114
539.90	0.112
540.35	0.112
540.80	0.113
541.26	0.113
541.71	0.114
542.16	0.115
542.62	0.114
543.07	0.114
543.52	0.113
543.98	0.113
544.43	0.114
544.88	0.115
545.34	0.115
545.79	0.114
546.24	0.114
546.69	0.117
547.15	0.116
547.60	0.119
548.05	0.114
548.51	0.118
548.96	0.117
549.41	0.117
549.86	0.117
550.32	0.118
550.77	0.118
551.22	0.119
551.68	0.120
552.13	0.120
552.58	0.120
553.03	0.121
553.49	0.118
553.94	0.122
554.39	0.122
554.84	0.121
555.30	0.122
555.75	0.123
556.20	0.123
556.65	0.124
557.11	0.123
557.56	0.124
558.01	0.123
558.46	0.125
558.92	0.126
559.37	0.127
559.82	0.125
560.27	0.127
560.72	0.128
561.18	0.128
561.63	0.127
562.08	0.127
562.53	0.129
562.99	0.130
563.44	0.132
563.89	0.129
564.34	0.130
564.79	0.131
565.25	0.132
565.70	0.135
566.15	0.133
566.60	0.134
567.05	0.136
567.50	0.135
567.96	0.134
568.41	0.135
568.86	0.138
569.31	0.137
569.76	0.138
570.21	0.138
570.67	0.138
571.12	0.140
571.57	0.140
572.02	0.144
572.47	0.141
572.92	0.143
573.37	0.143
573.83	0.142
574.28	0.144
574.73	0.143
575.18	0.144
575.63	0.147
576.08	0.145
576.53	0.147
576.98	0.149
577.44	0.151
577.89	0.149
578.34	0.150
578.79	0.150
579.24	0.154
579.69	0.152
580.14	0.154
580.59	0.156
581.04	0.154
581.49	0.155
581.95	0.159
582.40	0.159
582.85	0.159
583.30	0.161
583.75	0.161
584.20	0.163
584.65	0.164
585.10	0.165
585.55	0.168
586.00	0.167
586.45	0.167
586.90	0.171
587.35	0.171
587.80	0.172
588.25	0.174
588.71	0.174
589.16	0.176
589.61	0.180
590.06	0.179
590.51	0.180
590.96	0.183
591.41	0.183
591.86	0.183
592.31	0.188
592.76	0.188
593.21	0.191
593.66	0.192
594.11	0.195
594.56	0.194
595.01	0.197
595.46	0.200
595.91	0.201
596.36	0.203
596.81	0.200
597.26	0.204
597.71	0.207
598.16	0.208
598.61	0.209
599.06	0.209
599.51	0.209
599.96	0.215
600.41	0.215
600.86	0.215
601.31	0.217
601.76	0.220
602.21	0.219
602.65	0.222
603.10	0.223
603.55	0.223
604.00	0.226
604.45	0.227
604.90	0.229
605.35	0.230
605.80	0.233
606.25	0.234
606.70	0.235
607.15	0.232
607.60	0.237
608.05	0.238
608.50	0.239
608.95	0.241
609.39	0.242
609.84	0.241
610.29	0.244
610.74	0.242
611.19	0.246
611.64	0.247
612.09	0.249
612.54	0.250
612.99	0.248
613.44	0.249
613.88	0.250
614.33	0.251
614.78	0.251
615.23	0.254
615.68	0.253
616.13	0.254
616.58	0.253
617.03	0.255
617.47	0.253
617.92	0.256
618.37	0.256
618.82	0.256
619.27	0.257
619.72	0.257
620.17	0.259
620.61	0.259
621.06	0.257
621.51	0.263
621.96	0.261
622.41	0.261
622.86	0.263
623.30	0.262
623.75	0.263
624.20	0.262
624.65	0.265
625.10	0.268
625.54	0.266
625.99	0.265
626.44	0.270
626.89	0.268
627.34	0.272
627.78	0.271
628.23	0.270
628.68	0.273
629.13	0.273
629.58	0.275
630.02	0.276
630.47	0.278
630.92	0.278
631.37	0.279
631.81	0.282
632.26	0.282
632.71	0.285
633.16	0.286
633.61	0.287
634.05	0.290
634.50	0.290
634.95	0.292
635.40	0.296
635.84	0.295
636.29	0.298
636.74	0.298
637.18	0.301
637.63	0.302
638.08	0.304
638.53	0.307
638.97	0.309
639.42	0.312
639.87	0.312
640.32	0.317
640.76	0.318
641.21	0.320
641.66	0.324
642.10	0.324
642.55	0.326
643.00	0.329
643.44	0.333
643.89	0.334
644.34	0.337
644.79	0.340
645.23	0.342
645.68	0.344
646.13	0.346
646.57	0.350
647.02	0.353
647.47	0.355
647.91	0.356
648.36	0.361
648.81	0.364
649.25	0.361
649.70	0.365
650.15	0.367
650.59	0.372
651.04	0.373
651.48	0.373
651.93	0.376
652.38	0.378
652.82	0.380
653.27	0.385
653.72	0.384
654.16	0.387
654.61	0.389
655.06	0.390
655.50	0.391
655.95	0.391
656.39	0.396
656.84	0.397
657.29	0.399
657.73	0.398
658.18	0.402
658.62	0.403
659.07	0.405
659.52	0.403
659.96	0.405
660.41	0.405
660.85	0.408
661.30	0.409
661.74	0.411
662.19	0.409
662.64	0.407
663.08	0.411
663.53	0.411
663.97	0.410
664.42	0.412
664.86	0.410
665.31	0.410
665.75	0.413
666.20	0.408
666.65	0.408
667.09	0.406
667.54	0.403
667.98	0.401
668.43	0.399
668.87	0.396
669.32	0.396
669.76	0.391
670.21	0.391
670.65	0.387
671.10	0.385
671.54	0.382
671.99	0.377
672.43	0.374
672.88	0.369
673.32	0.364
673.77	0.356
674.21	0.354
674.66	0.349
675.10	0.342
675.55	0.341
675.99	0.332
676.44	0.326
676.88	0.322
677.33	0.317
677.77	0.308
678.22	0.303
678.66	0.299
679.11	0.292
679.55	0.284
679.99	0.280
680.44	0.274
680.88	0.265
681.33	0.261
681.77	0.252
682.22	0.247
682.66	0.241
683.11	0.236
683.55	0.228
683.99	0.225
684.44	0.219
684.88	0.212
685.33	0.206
685.77	0.200
686.21	0.196
686.66	0.193
687.10	0.187
687.55	0.183
687.99	0.176
688.44	0.174
688.88	0.171
689.32	0.165
689.77	0.158
690.21	0.157
690.65	0.151
691.10	0.147
691.54	0.145
691.99	0.141
692.43	0.138
692.87	0.138
693.32	0.133
693.76	0.128
694.20	0.128
694.65	0.126
695.09	0.124
695.53	0.121
695.98	0.118
696.42	0.117
696.86	0.113
697.31	0.112
697.75	0.111
698.19	0.106
698.64	0.105
699.08	0.108
699.52	0.105
699.97	0.103
700.41	0.103
700.85	0.101
701.30	0.100
701.74	0.094
702.18	0.096
702.63	0.096
703.07	0.094
703.51	0.095
703.96	0.094
704.40	0.092
704.84	0.089
705.28	0.089
705.73	0.090
706.17	0.091
706.61	0.088
707.06	0.090
707.50	0.084
707.94	0.084
708.38	0.086
708.83	0.086
709.27	0.086
709.71	0.084
710.15	0.086
710.60	0.084
711.04	0.085
711.48	0.082
711.92	0.086
712.37	0.083
712.81	0.080
713.25	0.082
713.69	0.084
714.13	0.078
714.58	0.079
715.02	0.080
715.46	0.079
715.90	0.079
716.35	0.081
716.79	0.080
717.23	0.083
717.67	0.082
718.11	0.080
718.56	0.078
719.00	0.081
719.44	0.081
719.88	0.079
720.32	0.080
720.76	0.079
721.21	0.077
721.65	0.081
722.09	0.082
722.53	0.081
722.97	0.082
723.41	0.078
723.86	0.080
724.30	0.081
724.74	0.082
725.18	0.079
725.62	0.083
726.06	0.081
726.50	0.080
726.95	0.080
727.39	0.081
727.83	0.079
728.27	0.081
728.71	0.082
729.15	0.082
729.59	0.079
730.03	0.081
730.48	0.083
730.92	0.081
731.36	0.081
731.80	0.080
732.24	0.083
732.68	0.081
733.12	0.084
733.56	0.082
734.00	0.080
734.44	0.079
734.89	0.084
735.33	0.085
735.77	0.083
736.21	0.083
736.65	0.082
737.09	0.083
737.53	0.084
737.97	0.086
738.41	0.082
738.85	0.084
739.29	0.085
739.73	0.081
740.17	0.084
740.61	0.082
741.05	0.081
741.49	0.081
741.93	0.078
742.37	0.081
742.81	0.083
743.26	0.083
743.70	0.082
744.14	0.084
744.58	0.085
745.02	0.084
745.46	0.083
745.90	0.083
746.34	0.082
746.78	0.081
747.22	0.082
747.66	0.083
748.10	0.080
748.54	0.081
748.98	0.082
749.42	0.082
749.86	0.084
750.29	0.080
750.73	0.083
751.17	0.082
751.61	0.079
752.05	0.082
752.49	0.083
752.93	0.080
753.37	0.082
753.81	0.082
754.25	0.080
754.69	0.080
755.13	0.079
755.57	0.081
756.01	0.083
756.45	0.082
756.89	0.083
757.33	0.083
757.77	0.078
758.21	0.082
758.64	0.079
759.08	0.079
759.52	0.081
759.96	0.081
760.40	0.080
760.84	0.081
761.28	0.080
761.72	0.080
762.16	0.081
762.60	0.081
763.03	0.081
763.47	0.080
763.91	0.083
764.35	0.082
764.79	0.083
765.23	0.078
765.67	0.082
766.11	0.083
766.54	0.078
766.98	0.081
767.42	0.079
767.86	0.079
768.30	0.079
768.74	0.081
769.17	0.077
769.61	0.079
770.05	0.081
770.49	0.080
770.93	0.081
771.37	0.078
771.80	0.080
772.24	0.082
772.68	0.081
773.12	0.079
773.56	0.080
774.00	0.078
774.43	0.082
774.87	0.078
775.31	0.082
775.75	0.080
776.19	0.080
776.62	0.080
777.06	0.082
777.50	0.078
777.94	0.083
778.37	0.080
778.81	0.080
779.25	0.080
779.69	0.081
780.13	0.077
780.56	0.077
781.00	0.082
781.44	0.079
781.88	0.079
782.31	0.077
782.75	0.080
783.19	0.080
783.63	0.079
784.06	0.077
784.50	0.079
784.94	0.076
785.37	0.078
785.81	0.077
786.25	0.078
786.69	0.084
787.12	0.081
787.56	0.082
788.00	0.078
788.43	0.080
788.87	0.079
789.31	0.080
789.75	0.083
790.18	0.081
790.62	0.081
791.06	0.077
791.49	0.076
791.93	0.081
792.37	0.079
792.80	0.078
793.24	0.077
793.68	0.081
794.11	0.075
794.55	0.077
794.99	0.080
795.42	0.074
795.86	0.082
796.30	0.077
796.73	0.080
797.17	0.078
797.61	0.079
798.04	0.078
798.48	0.081
798.91	0.080
799.35	0.078
799.79	0.076
800.22	0.074
800.66	0.076
801.10	0.079
801.53	0.079
801.97	0.080
802.40	0.076
802.84	0.080
803.28	0.078
803.71	0.077
804.15	0.078
804.58	0.079
805.02	0.076
805.46	0.078
805.89	0.079
806.33	0.073
806.76	0.081
807.20	0.074
807.63	0.076
808.07	0.076
808.51	0.072
808.94	0.078
809.38	0.076
809.81	0.075
810.25	0.079
810.68	0.076
811.12	0.076
811.55	0.075
811.99	0.079
812.42	0.074
812.86	0.078
813.29	0.080
813.73	0.076
814.17	0.077
814.60	0.076
815.04	0.077
815.47	0.076
815.91	0.075
816.34	0.078
816.78	0.080
817.21	0.074
817.65	0.075
818.08	0.078
818.52	0.080
818.95	0.080
819.39	0.078
819.82	0.078
820.25	0.075
820.69	0.076
821.12	0.074
821.56	0.076
821.99	0.078
822.43	0.081
822.86	0.072
823.30	0.076
823.73	0.076
824.17	0.077
824.60	0.083
825.04	0.078
825.47	0.078
825.90	0.076
826.34	0.075
826.77	0.081
827.21	0.075
827.64	0.075
828.08	0.082
828.51	0.075
828.94	0.079
829.38	0.080
829.81	0.078
830.25	0.080
830.68	0.078
831.11	0.082
831.55	0.087
831.98	0.077
832.42	0.077
832.85	0.084
833.28	0.080
833.72	0.085
834.15	0.084
834.58	0.083
835.02	0.087
835.45	0.080
835.88	0.084
836.32	0.084
836.75	0.078
837.19	0.084
837.62	0.086
838.05	0.081
838.49	0.082
838.92	0.082
839.35	0.087
839.79	0.080
840.22	0.081
840.65	0.081
841.09	0.082
841.52	0.086
841.95	0.082
842.39	0.079
842.82	0.082
843.25	0.083
843.68	0.090
844.12	0.085
844.55	0.080
844.98	0.082
845.42	0.086
845.85	0.085
846.28	0.083
846.71	0.085
847.15	0.087
847.58	0.088
848.01	0.083
848.45	0.092
848.88	0.088
849.31	0.085
849.74	0.078
850.18	0.086
850.61	0.081
851.04	0.089
851.47	0.088
851.91	0.087
852.34	0.087
852.77	0.086
853.20	0.092
853.64	0.088
854.07	0.079
854.50	0.085
854.93	0.089
855.36	0.079
855.80	0.079
856.23	0.086
856.66	0.085
857.09	0.090
857.52	0.091
857.96	0.089
858.39	0.083
858.82	0.085
859.25	0.087
859.68	0.090
860.12	0.078
860.55	0.086
860.98	0.093
861.41	0.083
861.84	0.086
862.27	0.084
862.71	0.088
863.14	0.087
863.57	0.082
864.00	0.093
864.43	0.095
864.86	0.082
865.30	0.087
865.73	0.091
866.16	0.095
866.59	0.090
867.02	0.084
867.45	0.082
867.88	0.090
868.31	0.079
868.75	0.090
869.18	0.097
869.61	0.091
870.04	0.091
870.47	0.086
870.90	0.095
871.33	0.090
871.76	0.084
872.19	0.093
872.62	0.096
873.06	0.084
873.49	0.089
873.92	0.091
874.35	0.088
874.78	0.089
875.21	0.097
875.64	0.090
876.07	0.089
876.50	0.095
876.93	0.091
877.36	0.092
877.79	0.092
878.22	0.096
878.65	0.100
879.08	0.095
879.51	0.087
879.94	0.092
880.37	0.089
880.80	0.089
881.23	0.090
881.67	0.092
882.10	0.091
882.53	0.090
882.96	0.092
883.39	0.093
883.82	0.088
884.25	0.088
884.68	0.093
885.11	0.088
885.54	0.097
885.97	0.095
886.39	0.091
886.82	0.098
887.25	0.090
887.68	0.103
888.11	0.097
888.54	0.094
888.97	0.093
889.40	0.096
889.83	0.100
890.26	0.098
890.69	0.099
891.12	0.096
891.55	0.100
891.98	0.091
892.41	0.093
892.84	0.103
893.27	0.095
893.70	0.095
894.13	0.101
894.56	0.098
894.98	0.098
895.41	0.095
895.84	0.096
896.27	0.098
896.70	0.102
897.13	0.098
897.56	0.103
897.99	0.096
898.42	0.101
898.85	0.103
899.27	0.092
899.70	0.098
900.13	0.098
900.56	0.102
900.99	0.096
901.42	0.103
901.85	0.106
902.28	0.101
902.70	0.098
903.13	0.100
903.56	0.102
903.99	0.097
904.42	0.098
904.85	0.098
905.27	0.100
905.70	0.104
906.13	0.099
906.56	0.102
906.99	0.101
907.42	0.100
907.84	0.099
908.27	0.099
908.70	0.105
909.13	0.098
909.56	0.103
909.98	0.097
910.41	0.100
910.84	0.098
911.27	0.103
911.70	0.104
912.12	0.101
912.55	0.099
912.98	0.103
913.41	0.103
913.84	0.102
914.26	0.100
914.69	0.101
915.12	0.097
915.55	0.098
915.97	0.098
916.40	0.097
916.83	0.101
917.26	0.102
917.68	0.101
918.11	0.096
918.54	0.098
918.97	0.099
919.39	0.103
919.82	0.102
920.25	0.099
920.67	0.101
921.10	0.102
921.53	0.102
921.96	0.103
922.38	0.105
922.81	0.104
923.24	0.105
923.66	0.106
924.09	0.108
924.52	0.106
924.94	0.106
925.37	0.105
925.80	0.105
926.22	0.107
926.65	0.107
927.08	0.110
927.50	0.116
927.93	0.119
928.36	0.115
928.78	0.113
929.21	0.116
929.64	0.114
930.06	0.115
930.49	0.116
930.92	0.112
931.34	0.120
931.77	0.119
932.20	0.116
932.62	0.122
933.05	0.121
933.47	0.123
933.90	0.124
934.33	0.125
934.75	0.126
935.18	0.127
935.61	0.128
936.03	0.136
936.46	0.133
936.88	0.131
937.31	0.138
937.73	0.140
938.16	0.142
938.59	0.137
939.01	0.141
939.44	0.148
939.86	0.146
940.29	0.151
940.71	0.159
941.14	0.153
941.57	0.148
941.99	0.153
942.42	0.165
942.84	0.161
943.27	0.165
943.69	0.163
944.12	0.165
944.54	0.172
944.97	0.170
945.39	0.172
945.82	0.175
946.24	0.172
946.67	0.172
947.09	0.183
947.52	0.181
947.94	0.185
948.37	0.192
948.79	0.190
949.22	0.196
949.64	0.189
950.07	0.192
950.49	0.194
950.92	0.194
951.34	0.208
951.77	0.203
952.19	0.211
952.62	0.206
953.04	0.211
953.47	0.218
953.89	0.219
954.32	0.211
954.74	0.224
955.17	0.228
955.59	0.223
956.01	0.237
956.44	0.238
956.86	0.237
957.29	0.241
957.71	0.246
958.14	0.243
958.56	0.253
958.98	0.246
959.41	0.251
959.83	0.257
960.26	0.248
960.68	0.254
961.10	0.256
961.53	0.251
961.95	0.262
962.38	0.266
962.80	0.259
963.22	0.258
963.65	0.267
964.07	0.259
964.50	0.272
964.92	0.264
965.34	0.267
965.77	0.266
966.19	0.261
966.61	0.264
967.04	0.266
967.46	0.270
967.88	0.266
968.31	0.268
968.73	0.268
969.15	0.268
969.58	0.263
970.00	0.273
970.42	0.277
970.85	0.261
971.27	0.275
971.69	0.277
972.12	0.274
972.54	0.278
972.96	0.279
973.39	0.277
973.81	0.278
974.23	0.277
974.65	0.276
975.08	0.269
975.50	0.271
975.92	0.272
976.35	0.274
976.77	0.276
977.19	0.279
977.61	0.272
978.04	0.278
978.46	0.274
978.88	0.276
979.30	0.279
979.73	0.277
980.15	0.268
980.57	0.278
980.99	0.284
981.42	0.274
981.84	0.277
982.26	0.276
982.68	0.272
983.11	0.275
983.53	0.280
983.95	0.271
984.37	0.274
984.79	0.272
985.22	0.279
985.64	0.278
986.06	0.262
986.48	0.270
986.90	0.266
987.33	0.268
987.75	0.273
988.17	0.268
988.59	0.261
989.01	0.268
989.43	0.261
989.86	0.260
990.28	0.270
990.70	0.255
991.12	0.264
991.54	0.263
991.96	0.260
992.39	0.262
992.81	0.261
993.23	0.255
993.65	0.268
994.07	0.250
994.49	0.261
994.91	0.252
995.34	0.251
995.76	0.253
996.18	0.257
996.60	0.252
997.02	0.264
997.44	0.253
997.86	0.258
998.28	0.258
998.70	0.253
999.12	0.259
999.55	0.254
999.97	0.247
1000.39	0.259
1000.81	0.254
1001.23	0.251
1001.65	0.250
1002.07	0.240
1002.49	0.240
1002.91	0.247
1003.33	0.232
1003.75	0.249
1004.17	0.242
1004.59	0.231
1005.01	0.240
1005.43	0.236
1005.85	0.235
1006.28	0.233
1006.70	0.235
1007.12	0.232
1007.54	0.242
1007.96	0.236
1008.38	0.240
1008.80	0.232
1009.22	0.228
1009.64	0.231
1010.06	0.235
1010.48	0.232
1010.90	0.229
1011.32	0.228
1011.74	0.219
1012.16	0.223
1012.58	0.219
1013.00	0.225
1013.42	0.214
1013.84	0.213
1014.26	0.217
1014.67	0.225
1015.09	0.209
1015.51	0.215
1015.93	0.209
1016.35	0.224
1016.77	0.218
1017.19	0.202
1017.61	0.211
1018.03	0.209
1018.45	0.216
1018.87	0.216
1019.29	0.227
1019.71	0.217
1020.13	0.216
1020.55	0.226
1020.97	0.204
1021.38	0.215
1021.80	0.209
1022.22	0.207
1022.64	0.189
1023.06	0.174
1023.48	0.201
1023.90	0.205
1024.32	0.185
1024.74	0.201
1025.15	0.191
1025.57	0.196
1025.99	0.190
1026.41	0.190
1026.83	0.193
1027.25	0.189
1027.67	0.180
1028.08	0.198
1028.50	0.195
1028.92	0.166
1029.34	0.168
1029.76	0.184
1030.18	0.169
1030.60	0.176
1031.01	0.183
1031.43	0.185
1031.85	0.166
1032.27	0.177
1032.69	0.182
1033.10	0.183
1033.52	0.167
1033.94	0.168
1034.36	0.170
1034.78	0.173
1035.19	0.151
1035.61	0.187
1036.03	0.160
1036.45	0.169
1036.87	0.158
1037.28	0.177
1037.70	0.162
1038.12	0.155
1038.54	0.152
1038.95	0.164
1039.37	0.171
1039.79	0.167
1040.21	0.169
1040.62	0.168
1041.04	0.153
1041.46	0.150
1041.88	0.150
1042.29	0.171
1042.71	0.141
1043.13	0.149
1043.55	0.159
1043.96	0.136
1044.38	0.144
1044.80	0.159
1045.21	0.154
1045.63	0.144
1046.05	0.137
1046.47	0.147
1046.88	0.150
1047.30	0.137
1047.72	0.169
1048.13	0.155
1048.55	0.130
1048.97	0.144
1049.38	0.156
1049.80	0.134
1050.22	0.164
1050.63	0.114
1051.05	0.136
1051.47	0.179
1051.88	0.132
1052.30	0.160
1052.72	0.139
1053.13	0.115
1053.55	0.140
1053.97	0.156
1054.38	0.142
1054.80	0.129
1055.21	0.158
1055.63	0.158
1056.05	0.190
1056.46	0.097
1056.88	0.224
1057.29	0.151
1057.71	0.108
1058.13	0.150
1058.54	0.166
1058.96	0.128
1059.37	0.152
1059.79	0.169
1060.21	0.142
1060.62	0.155
1061.04	0.172
1061.45	0.229
1061.87	0.154
1062.28	0.114
1062.70	0.193
1063.12	0.163
1063.53	0.128
1063.95	0.134
1064.36	0.167
1064.78	0.211
1065.19	0.173
1065.61	0.129
1066.02	0.235
1066.44	0.158
1066.85	0.100
1067.27	0.265
1067.68	0.133
1068.10	0.109
1068.51	0.073
1068.93	0.166
1069.35	0.182
1069.76	0.133
1070.17	0.156
1070.59	0.342
1071.00	0.300
1071.42	0.224
1071.83	0.348
1072.25	0.183
1072.66	0.144
1073.08	0.299
1073.49	0.345
1073.91	0.140
1074.32	0.234
1074.74	0.346
1075.15	0.369
1075.57	0.374
1075.98	0.181
1076.40	0.375
1076.81	0.357
1077.22	0.126
1077.64	0.680
1078.05	0.385
1078.47	0.189
1078.88	0.299
1079.30	0.086
1079.71	0.289
1080.12	0.303
1080.54	0.145
1080.95	0.817
1081.37	0.304
1081.78	0.275
1082.19	0.286
1082.61	0.369
1083.02	0.371
1083.44	0.230
1083.85	0.225
1084.26	0.498
1084.68	0.460
1085.09	0.224
1085.50	-0.000
1085.92	1.286
1086.33	0.919
1086.74	1.097
1087.16	0.381
1087.57	0.395
1087.98	0.292
1088.40	0.192
1088.81	0.464
1089.22	1.357
1089.64	0.245
1090.05	-0.000
1090.46	0.519
1090.88	0.147
1091.29	0.614
1091.70	0.854
1092.12	0.225
1092.53	0.607
1092.94	0.547
1093.36	1.033
1093.77	0.432
1094.18	-0.000
1094.59	0.643
1095.01	0.850
1095.42	0.144
1095.83	0.411
1096.25	1.230
1096.66	1.114
1097.07	0.367
1097.48	0.747
1097.90	-0.000
1098.31	0.290
1098.72	0.357
1099.13	-0.000
>>>>>End Processed Spectral Data<<<<<
