SpectraSuite Data File
++++++++++++++++++++++++++++++++++++
Date: Tue Jul 11 13:39:59 CEST 2017
User: IPCE
Dark Spectrum Present: Yes
Reference Spectrum Present: Yes
Number of Sampled Component Spectra: 1
Spectrometers: HR+C0708
Integration Time (usec): 1000 (HR+C0708)
Spectra Averaged: 10 (HR+C0708)
Boxcar Smoothing: 0 (HR+C0708)
Correct for Electrical Dark: No (HR+C0708)
Strobe/Lamp Enabled: No (HR+C0708)
Correct for Detector Non-linearity: No (HR+C0708)
Correct for Stray Light: No (HR+C0708)
Number of Pixels in Processed Spectrum: 2048
>>>>>Begin Processed Spectral Data<<<<<
188.76	0.296
189.23	0.158
189.70	0.390
190.17	0.170
190.64	0.641
191.12	0.208
191.59	0.333
192.06	0.510
192.53	0.131
193.01	0.967
193.48	-0.000
193.95	-0.372
194.42	0.454
194.90	0.571
195.37	-0.259
195.84	-0.000
196.31	-0.000
196.78	0.450
197.26	0.183
197.73	0.110
198.20	0.066
198.67	-0.000
199.14	-0.181
199.62	-0.000
200.09	0.612
200.56	0.257
201.03	0.509
201.50	0.495
201.97	0.792
202.45	0.588
202.92	0.437
203.39	0.586
203.86	0.616
204.33	0.278
204.80	0.967
205.28	0.548
205.75	0.235
206.22	0.576
206.69	0.427
207.16	0.360
207.63	0.488
208.11	0.475
208.58	0.622
209.05	0.706
209.52	0.481
209.99	0.555
210.46	0.482
210.93	0.466
211.41	0.720
211.88	0.663
212.35	0.399
212.82	0.504
213.29	0.620
213.76	0.491
214.23	0.417
214.70	0.586
215.18	0.748
215.65	0.617
216.12	0.344
216.59	0.664
217.06	1.881
217.53	0.351
218.00	0.400
218.47	0.497
218.94	0.535
219.41	0.612
219.89	0.614
220.36	0.568
220.83	0.658
221.30	0.718
221.77	0.628
222.24	0.517
222.71	0.395
223.18	0.614
223.65	0.686
224.12	0.707
224.59	0.694
225.06	0.586
225.54	0.705
226.01	0.693
226.48	0.612
226.95	0.971
227.42	0.978
227.89	0.901
228.36	0.939
228.83	1.075
229.30	1.212
229.77	1.290
230.24	1.251
230.71	1.375
231.18	1.271
231.65	1.194
232.12	1.519
232.59	1.540
233.06	1.294
233.53	1.529
234.00	1.408
234.47	1.645
234.94	1.733
235.41	1.620
235.88	1.843
236.35	1.784
236.82	1.853
237.29	2.126
237.76	2.016
238.23	1.921
238.70	1.991
239.17	2.221
239.64	2.332
240.11	2.287
240.58	1.978
241.05	2.152
241.52	2.211
241.99	2.138
242.46	2.318
242.93	2.267
243.40	2.185
243.87	2.491
244.34	2.281
244.81	2.302
245.28	2.444
245.75	2.304
246.22	2.206
246.69	2.480
247.16	2.395
247.63	2.442
248.10	2.579
248.57	2.364
249.04	2.705
249.51	2.464
249.98	2.512
250.45	2.497
250.92	2.340
251.39	2.318
251.85	2.434
252.32	2.385
252.79	2.425
253.26	2.608
253.73	2.652
254.20	2.728
254.67	2.451
255.14	2.496
255.61	2.615
256.08	2.567
256.55	2.545
257.02	2.447
257.49	2.558
257.95	2.719
258.42	2.527
258.89	2.494
259.36	2.629
259.83	2.533
260.30	2.561
260.77	2.981
261.24	2.683
261.71	2.714
262.17	2.712
262.64	2.504
263.11	2.746
263.58	2.691
264.05	2.507
264.52	2.718
264.99	2.644
265.46	2.525
265.92	2.892
266.39	2.578
266.86	2.588
267.33	2.690
267.80	2.647
268.27	2.832
268.74	2.617
269.20	2.562
269.67	2.709
270.14	2.705
270.61	2.479
271.08	2.728
271.55	2.595
272.01	2.524
272.48	2.714
272.95	2.523
273.42	2.715
273.89	2.576
274.36	2.555
274.82	3.009
275.29	2.687
275.76	2.463
276.23	2.598
276.70	2.667
277.16	2.556
277.63	2.875
278.10	2.639
278.57	2.671
279.04	2.535
279.50	2.524
279.97	2.509
280.44	2.639
280.91	2.554
281.38	2.754
281.84	2.537
282.31	2.549
282.78	2.597
283.25	2.599
283.72	2.477
284.18	2.602
284.65	2.668
285.12	2.537
285.59	2.678
286.05	2.525
286.52	2.884
286.99	2.591
287.46	2.572
287.92	2.639
288.39	2.645
288.86	2.581
289.33	2.506
289.79	2.531
290.26	2.528
290.73	2.521
291.20	2.506
291.66	2.674
292.13	2.511
292.60	2.408
293.07	2.592
293.53	2.545
294.00	2.427
294.47	2.521
294.93	2.469
295.40	2.583
295.87	2.574
296.34	2.502
296.80	2.721
297.27	2.475
297.74	2.501
298.20	2.611
298.67	2.566
299.14	2.406
299.60	2.627
300.07	2.415
300.54	2.529
301.01	2.466
301.47	2.401
301.94	2.564
302.41	2.501
302.87	2.358
303.34	2.571
303.81	2.375
304.27	2.389
304.74	2.453
305.21	2.298
305.67	2.506
306.14	2.365
306.61	2.286
307.07	2.336
307.54	2.407
308.01	2.410
308.47	2.421
308.94	2.396
309.40	2.270
309.87	2.399
310.34	2.500
310.80	2.645
311.27	2.450
311.74	2.450
312.20	2.333
312.67	2.397
313.13	2.457
313.60	2.379
314.07	2.373
314.53	2.261
315.00	2.404
315.47	2.368
315.93	2.426
316.40	2.375
316.86	2.427
317.33	2.424
317.80	2.423
318.26	2.226
318.73	2.317
319.19	2.323
319.66	2.294
320.13	2.248
320.59	2.303
321.06	2.256
321.52	2.262
321.99	2.226
322.45	2.289
322.92	2.239
323.39	2.189
323.85	2.225
324.32	2.150
324.78	2.191
325.25	2.256
325.71	2.153
326.18	2.131
326.64	2.207
327.11	2.148
327.58	2.149
328.04	2.194
328.51	2.071
328.97	2.119
329.44	2.101
329.90	2.059
330.37	2.132
330.83	2.077
331.30	2.124
331.76	2.106
332.23	2.069
332.69	2.136
333.16	2.148
333.62	2.167
334.09	2.199
334.56	2.139
335.02	2.071
335.49	2.212
335.95	2.095
336.42	2.056
336.88	2.150
337.35	2.085
337.81	2.140
338.28	2.079
338.74	2.078
339.20	2.131
339.67	2.103
340.13	2.070
340.60	2.156
341.06	2.114
341.53	2.036
341.99	2.068
342.46	2.098
342.92	2.101
343.39	2.070
343.85	2.029
344.32	2.069
344.78	2.033
345.25	2.008
345.71	1.998
346.17	1.947
346.64	1.899
347.10	1.905
347.57	1.897
348.03	1.908
348.50	1.824
348.96	1.771
349.43	1.764
349.89	1.770
350.35	1.735
350.82	1.705
351.28	1.646
351.75	1.565
352.21	1.538
352.67	1.510
353.14	1.466
353.60	1.420
354.07	1.367
354.53	1.306
355.00	1.244
355.46	1.175
355.92	1.149
356.39	1.057
356.85	0.980
357.31	0.927
357.78	0.850
358.24	0.780
358.71	0.721
359.17	0.660
359.63	0.606
360.10	0.557
360.56	0.505
361.03	0.469
361.49	0.430
361.95	0.395
362.42	0.373
362.88	0.348
363.34	0.328
363.81	0.307
364.27	0.290
364.73	0.277
365.20	0.268
365.66	0.257
366.12	0.248
366.59	0.239
367.05	0.233
367.51	0.227
367.98	0.218
368.44	0.214
368.90	0.210
369.37	0.208
369.83	0.206
370.29	0.202
370.76	0.199
371.22	0.194
371.68	0.194
372.15	0.190
372.61	0.192
373.07	0.189
373.54	0.188
374.00	0.187
374.46	0.186
374.92	0.182
375.39	0.181
375.85	0.177
376.31	0.178
376.78	0.177
377.24	0.176
377.70	0.177
378.16	0.173
378.63	0.174
379.09	0.170
379.55	0.172
380.01	0.170
380.48	0.170
380.94	0.169
381.40	0.167
381.87	0.167
382.33	0.165
382.79	0.166
383.25	0.166
383.72	0.161
384.18	0.161
384.64	0.161
385.10	0.160
385.56	0.159
386.03	0.158
386.49	0.159
386.95	0.157
387.41	0.155
387.88	0.155
388.34	0.153
388.80	0.153
389.26	0.151
389.72	0.154
390.19	0.156
390.65	0.153
391.11	0.151
391.57	0.152
392.04	0.148
392.50	0.150
392.96	0.148
393.42	0.149
393.88	0.149
394.34	0.147
394.81	0.144
395.27	0.145
395.73	0.146
396.19	0.141
396.65	0.144
397.12	0.141
397.58	0.139
398.04	0.142
398.50	0.142
398.96	0.140
399.42	0.142
399.89	0.140
400.35	0.138
400.81	0.138
401.27	0.133
401.73	0.137
402.19	0.137
402.65	0.134
403.12	0.136
403.58	0.133
404.04	0.132
404.50	0.132
404.96	0.132
405.42	0.132
405.88	0.131
406.34	0.130
406.81	0.130
407.27	0.126
407.73	0.128
408.19	0.126
408.65	0.130
409.11	0.128
409.57	0.127
410.03	0.125
410.49	0.123
410.96	0.122
411.42	0.123
411.88	0.122
412.34	0.122
412.80	0.122
413.26	0.120
413.72	0.123
414.18	0.119
414.64	0.116
415.10	0.118
415.56	0.119
416.02	0.115
416.48	0.118
416.95	0.120
417.41	0.117
417.87	0.117
418.33	0.116
418.79	0.115
419.25	0.117
419.71	0.118
420.17	0.116
420.63	0.118
421.09	0.116
421.55	0.114
422.01	0.114
422.47	0.115
422.93	0.115
423.39	0.116
423.85	0.113
424.31	0.115
424.77	0.114
425.23	0.112
425.69	0.108
426.15	0.110
426.61	0.111
427.07	0.111
427.53	0.111
427.99	0.110
428.45	0.108
428.91	0.107
429.37	0.108
429.83	0.108
430.29	0.111
430.75	0.111
431.21	0.107
431.67	0.107
432.13	0.105
432.59	0.106
433.05	0.108
433.51	0.107
433.97	0.106
434.43	0.106
434.89	0.103
435.35	0.103
435.81	0.102
436.27	0.104
436.73	0.106
437.19	0.103
437.65	0.102
438.11	0.101
438.57	0.103
439.03	0.101
439.48	0.100
439.94	0.101
440.40	0.099
440.86	0.096
441.32	0.100
441.78	0.098
442.24	0.098
442.70	0.100
443.16	0.099
443.62	0.102
444.08	0.098
444.54	0.097
444.99	0.095
445.45	0.101
445.91	0.096
446.37	0.095
446.83	0.096
447.29	0.097
447.75	0.095
448.21	0.093
448.67	0.091
449.12	0.097
449.58	0.094
450.04	0.095
450.50	0.094
450.96	0.095
451.42	0.095
451.88	0.093
452.34	0.093
452.79	0.090
453.25	0.092
453.71	0.092
454.17	0.089
454.63	0.088
455.09	0.093
455.55	0.094
456.00	0.090
456.46	0.088
456.92	0.088
457.38	0.087
457.84	0.088
458.30	0.090
458.75	0.091
459.21	0.088
459.67	0.091
460.13	0.089
460.59	0.090
461.04	0.087
461.50	0.089
461.96	0.088
462.42	0.088
462.88	0.089
463.33	0.087
463.79	0.088
464.25	0.086
464.71	0.087
465.17	0.087
465.62	0.089
466.08	0.086
466.54	0.086
467.00	0.088
467.46	0.083
467.91	0.085
468.37	0.084
468.83	0.086
469.29	0.085
469.74	0.086
470.20	0.085
470.66	0.088
471.12	0.086
471.57	0.086
472.03	0.084
472.49	0.084
472.95	0.086
473.40	0.087
473.86	0.088
474.32	0.087
474.78	0.084
475.23	0.087
475.69	0.082
476.15	0.085
476.60	0.085
477.06	0.086
477.52	0.083
477.98	0.083
478.43	0.083
478.89	0.082
479.35	0.084
479.80	0.085
480.26	0.081
480.72	0.080
481.18	0.084
481.63	0.083
482.09	0.080
482.55	0.082
483.00	0.081
483.46	0.080
483.92	0.079
484.37	0.083
484.83	0.079
485.29	0.080
485.74	0.079
486.20	0.082
486.66	0.084
487.11	0.079
487.57	0.080
488.03	0.083
488.48	0.080
488.94	0.082
489.40	0.080
489.85	0.080
490.31	0.079
490.77	0.078
491.22	0.079
491.68	0.079
492.13	0.080
492.59	0.080
493.05	0.079
493.50	0.080
493.96	0.078
494.42	0.080
494.87	0.080
495.33	0.077
495.78	0.079
496.24	0.077
496.70	0.080
497.15	0.079
497.61	0.079
498.06	0.080
498.52	0.079
498.98	0.077
499.43	0.077
499.89	0.077
500.34	0.078
500.80	0.077
501.25	0.079
501.71	0.076
502.17	0.080
502.62	0.078
503.08	0.078
503.53	0.079
503.99	0.075
504.44	0.078
504.90	0.074
505.36	0.077
505.81	0.077
506.27	0.077
506.72	0.077
507.18	0.077
507.63	0.073
508.09	0.077
508.54	0.076
509.00	0.076
509.45	0.076
509.91	0.074
510.36	0.075
510.82	0.075
511.27	0.076
511.73	0.077
512.19	0.075
512.64	0.073
513.10	0.074
513.55	0.072
514.01	0.075
514.46	0.075
514.92	0.074
515.37	0.075
515.83	0.075
516.28	0.075
516.73	0.074
517.19	0.072
517.64	0.071
518.10	0.075
518.55	0.071
519.01	0.074
519.46	0.074
519.92	0.071
520.37	0.073
520.83	0.075
521.28	0.072
521.74	0.072
522.19	0.071
522.65	0.074
523.10	0.073
523.55	0.071
524.01	0.071
524.46	0.073
524.92	0.072
525.37	0.072
525.83	0.072
526.28	0.071
526.73	0.073
527.19	0.069
527.64	0.073
528.10	0.073
528.55	0.071
529.01	0.073
529.46	0.071
529.91	0.073
530.37	0.073
530.82	0.072
531.28	0.071
531.73	0.070
532.18	0.071
532.64	0.070
533.09	0.073
533.54	0.072
534.00	0.072
534.45	0.071
534.91	0.072
535.36	0.072
535.81	0.074
536.27	0.072
536.72	0.073
537.17	0.071
537.63	0.072
538.08	0.071
538.54	0.073
538.99	0.073
539.44	0.073
539.90	0.072
540.35	0.071
540.80	0.073
541.26	0.073
541.71	0.075
542.16	0.075
542.62	0.075
543.07	0.076
543.52	0.074
543.98	0.072
544.43	0.074
544.88	0.074
545.34	0.074
545.79	0.075
546.24	0.074
546.69	0.074
547.15	0.076
547.60	0.077
548.05	0.076
548.51	0.076
548.96	0.074
549.41	0.076
549.86	0.077
550.32	0.076
550.77	0.076
551.22	0.077
551.68	0.079
552.13	0.079
552.58	0.078
553.03	0.078
553.49	0.077
553.94	0.080
554.39	0.081
554.84	0.079
555.30	0.080
555.75	0.081
556.20	0.079
556.65	0.081
557.11	0.082
557.56	0.079
558.01	0.080
558.46	0.081
558.92	0.080
559.37	0.084
559.82	0.082
560.27	0.084
560.72	0.083
561.18	0.084
561.63	0.083
562.08	0.083
562.53	0.082
562.99	0.086
563.44	0.085
563.89	0.084
564.34	0.087
564.79	0.086
565.25	0.086
565.70	0.089
566.15	0.089
566.60	0.087
567.05	0.088
567.50	0.090
567.96	0.090
568.41	0.089
568.86	0.091
569.31	0.090
569.76	0.090
570.21	0.090
570.67	0.092
571.12	0.091
571.57	0.093
572.02	0.094
572.47	0.093
572.92	0.094
573.37	0.095
573.83	0.096
574.28	0.096
574.73	0.096
575.18	0.097
575.63	0.098
576.08	0.097
576.53	0.097
576.98	0.099
577.44	0.100
577.89	0.098
578.34	0.102
578.79	0.100
579.24	0.102
579.69	0.102
580.14	0.103
580.59	0.104
581.04	0.102
581.49	0.105
581.95	0.106
582.40	0.106
582.85	0.106
583.30	0.108
583.75	0.109
584.20	0.110
584.65	0.111
585.10	0.112
585.55	0.114
586.00	0.114
586.45	0.113
586.90	0.116
587.35	0.116
587.80	0.117
588.25	0.120
588.71	0.121
589.16	0.121
589.61	0.122
590.06	0.122
590.51	0.125
590.96	0.126
591.41	0.128
591.86	0.126
592.31	0.129
592.76	0.130
593.21	0.131
593.66	0.132
594.11	0.134
594.56	0.136
595.01	0.136
595.46	0.139
595.91	0.141
596.36	0.141
596.81	0.142
597.26	0.141
597.71	0.143
598.16	0.147
598.61	0.145
599.06	0.148
599.51	0.148
599.96	0.151
600.41	0.153
600.86	0.153
601.31	0.150
601.76	0.157
602.21	0.155
602.65	0.157
603.10	0.161
603.55	0.160
604.00	0.161
604.45	0.162
604.90	0.166
605.35	0.166
605.80	0.166
606.25	0.168
606.70	0.169
607.15	0.168
607.60	0.171
608.05	0.172
608.50	0.174
608.95	0.173
609.39	0.174
609.84	0.176
610.29	0.176
610.74	0.174
611.19	0.176
611.64	0.180
612.09	0.180
612.54	0.180
612.99	0.179
613.44	0.179
613.88	0.181
614.33	0.181
614.78	0.183
615.23	0.184
615.68	0.183
616.13	0.183
616.58	0.184
617.03	0.183
617.47	0.184
617.92	0.186
618.37	0.184
618.82	0.185
619.27	0.187
619.72	0.184
620.17	0.188
620.61	0.188
621.06	0.188
621.51	0.189
621.96	0.187
622.41	0.186
622.86	0.190
623.30	0.188
623.75	0.188
624.20	0.189
624.65	0.191
625.10	0.192
625.54	0.191
625.99	0.190
626.44	0.195
626.89	0.194
627.34	0.196
627.78	0.196
628.23	0.196
628.68	0.196
629.13	0.199
629.58	0.197
630.02	0.199
630.47	0.200
630.92	0.201
631.37	0.201
631.81	0.203
632.26	0.204
632.71	0.207
633.16	0.204
633.61	0.206
634.05	0.208
634.50	0.211
634.95	0.212
635.40	0.216
635.84	0.215
636.29	0.216
636.74	0.215
637.18	0.219
637.63	0.222
638.08	0.220
638.53	0.223
638.97	0.225
639.42	0.227
639.87	0.230
640.32	0.232
640.76	0.233
641.21	0.235
641.66	0.236
642.10	0.240
642.55	0.242
643.00	0.242
643.44	0.242
643.89	0.247
644.34	0.248
644.79	0.251
645.23	0.254
645.68	0.257
646.13	0.259
646.57	0.262
647.02	0.264
647.47	0.265
647.91	0.269
648.36	0.272
648.81	0.273
649.25	0.274
649.70	0.276
650.15	0.279
650.59	0.282
651.04	0.285
651.48	0.285
651.93	0.287
652.38	0.288
652.82	0.291
653.27	0.291
653.72	0.296
654.16	0.297
654.61	0.300
655.06	0.301
655.50	0.300
655.95	0.301
656.39	0.303
656.84	0.309
657.29	0.308
657.73	0.308
658.18	0.310
658.62	0.313
659.07	0.314
659.52	0.315
659.96	0.317
660.41	0.318
660.85	0.318
661.30	0.321
661.74	0.321
662.19	0.322
662.64	0.324
663.08	0.324
663.53	0.325
663.97	0.325
664.42	0.324
664.86	0.323
665.31	0.327
665.75	0.328
666.20	0.323
666.65	0.324
667.09	0.324
667.54	0.322
667.98	0.318
668.43	0.322
668.87	0.319
669.32	0.317
669.76	0.316
670.21	0.313
670.65	0.308
671.10	0.310
671.54	0.304
671.99	0.303
672.43	0.297
672.88	0.294
673.32	0.291
673.77	0.285
674.21	0.281
674.66	0.280
675.10	0.276
675.55	0.269
675.99	0.265
676.44	0.260
676.88	0.254
677.33	0.250
677.77	0.242
678.22	0.237
678.66	0.233
679.11	0.226
679.55	0.223
679.99	0.216
680.44	0.211
680.88	0.206
681.33	0.198
681.77	0.191
682.22	0.186
682.66	0.180
683.11	0.176
683.55	0.169
683.99	0.166
684.44	0.162
684.88	0.159
685.33	0.150
685.77	0.145
686.21	0.142
686.66	0.136
687.10	0.133
687.55	0.130
687.99	0.125
688.44	0.123
688.88	0.118
689.32	0.113
689.77	0.109
690.21	0.109
690.65	0.105
691.10	0.100
691.54	0.096
691.99	0.093
692.43	0.091
692.87	0.090
693.32	0.086
693.76	0.083
694.20	0.084
694.65	0.080
695.09	0.080
695.53	0.077
695.98	0.077
696.42	0.072
696.86	0.066
697.31	0.068
697.75	0.068
698.19	0.067
698.64	0.063
699.08	0.066
699.52	0.063
699.97	0.060
700.41	0.061
700.85	0.060
701.30	0.058
701.74	0.056
702.18	0.056
702.63	0.054
703.07	0.053
703.51	0.054
703.96	0.054
704.40	0.052
704.84	0.049
705.28	0.051
705.73	0.050
706.17	0.050
706.61	0.047
707.06	0.053
707.50	0.048
707.94	0.047
708.38	0.049
708.83	0.047
709.27	0.048
709.71	0.045
710.15	0.046
710.60	0.048
711.04	0.045
711.48	0.044
711.92	0.047
712.37	0.043
712.81	0.043
713.25	0.042
713.69	0.046
714.13	0.042
714.58	0.040
715.02	0.045
715.46	0.041
715.90	0.042
716.35	0.044
716.79	0.042
717.23	0.042
717.67	0.044
718.11	0.041
718.56	0.042
719.00	0.044
719.44	0.043
719.88	0.040
720.32	0.040
720.76	0.041
721.21	0.042
721.65	0.043
722.09	0.045
722.53	0.042
722.97	0.043
723.41	0.042
723.86	0.043
724.30	0.043
724.74	0.044
725.18	0.043
725.62	0.044
726.06	0.045
726.50	0.045
726.95	0.043
727.39	0.044
727.83	0.044
728.27	0.042
728.71	0.044
729.15	0.045
729.59	0.043
730.03	0.043
730.48	0.048
730.92	0.043
731.36	0.042
731.80	0.041
732.24	0.045
732.68	0.046
733.12	0.045
733.56	0.045
734.00	0.044
734.44	0.047
734.89	0.046
735.33	0.045
735.77	0.046
736.21	0.046
736.65	0.043
737.09	0.041
737.53	0.046
737.97	0.047
738.41	0.044
738.85	0.046
739.29	0.047
739.73	0.044
740.17	0.045
740.61	0.045
741.05	0.045
741.49	0.046
741.93	0.044
742.37	0.047
742.81	0.048
743.26	0.046
743.70	0.045
744.14	0.050
744.58	0.048
745.02	0.045
745.46	0.049
745.90	0.048
746.34	0.047
746.78	0.045
747.22	0.045
747.66	0.046
748.10	0.043
748.54	0.045
748.98	0.045
749.42	0.044
749.86	0.047
750.29	0.050
750.73	0.048
751.17	0.044
751.61	0.045
752.05	0.047
752.49	0.043
752.93	0.042
753.37	0.046
753.81	0.046
754.25	0.044
754.69	0.044
755.13	0.044
755.57	0.043
756.01	0.042
756.45	0.044
756.89	0.045
757.33	0.045
757.77	0.043
758.21	0.045
758.64	0.047
759.08	0.045
759.52	0.045
759.96	0.043
760.40	0.045
760.84	0.044
761.28	0.045
761.72	0.045
762.16	0.044
762.60	0.044
763.03	0.045
763.47	0.041
763.91	0.044
764.35	0.041
764.79	0.047
765.23	0.043
765.67	0.046
766.11	0.046
766.54	0.042
766.98	0.043
767.42	0.045
767.86	0.039
768.30	0.041
768.74	0.043
769.17	0.041
769.61	0.045
770.05	0.043
770.49	0.042
770.93	0.043
771.37	0.043
771.80	0.043
772.24	0.049
772.68	0.045
773.12	0.045
773.56	0.046
774.00	0.042
774.43	0.043
774.87	0.042
775.31	0.043
775.75	0.044
776.19	0.043
776.62	0.044
777.06	0.043
777.50	0.044
777.94	0.044
778.37	0.043
778.81	0.041
779.25	0.047
779.69	0.045
780.13	0.040
780.56	0.045
781.00	0.044
781.44	0.041
781.88	0.044
782.31	0.044
782.75	0.045
783.19	0.045
783.63	0.043
784.06	0.042
784.50	0.043
784.94	0.044
785.37	0.044
785.81	0.046
786.25	0.040
786.69	0.046
787.12	0.043
787.56	0.042
788.00	0.042
788.43	0.042
788.87	0.041
789.31	0.045
789.75	0.047
790.18	0.043
790.62	0.047
791.06	0.041
791.49	0.041
791.93	0.040
792.37	0.040
792.80	0.044
793.24	0.043
793.68	0.044
794.11	0.043
794.55	0.041
794.99	0.046
795.42	0.042
795.86	0.041
796.30	0.045
796.73	0.043
797.17	0.040
797.61	0.041
798.04	0.045
798.48	0.043
798.91	0.040
799.35	0.041
799.79	0.042
800.22	0.038
800.66	0.042
801.10	0.044
801.53	0.046
801.97	0.045
802.40	0.040
802.84	0.041
803.28	0.041
803.71	0.041
804.15	0.042
804.58	0.043
805.02	0.041
805.46	0.042
805.89	0.046
806.33	0.042
806.76	0.044
807.20	0.038
807.63	0.042
808.07	0.039
808.51	0.038
808.94	0.044
809.38	0.042
809.81	0.041
810.25	0.041
810.68	0.045
811.12	0.040
811.55	0.040
811.99	0.040
812.42	0.042
812.86	0.042
813.29	0.044
813.73	0.041
814.17	0.039
814.60	0.041
815.04	0.039
815.47	0.038
815.91	0.042
816.34	0.041
816.78	0.041
817.21	0.045
817.65	0.038
818.08	0.045
818.52	0.043
818.95	0.043
819.39	0.041
819.82	0.042
820.25	0.042
820.69	0.041
821.12	0.041
821.56	0.043
821.99	0.041
822.43	0.042
822.86	0.039
823.30	0.038
823.73	0.039
824.17	0.037
824.60	0.044
825.04	0.041
825.47	0.039
825.90	0.041
826.34	0.040
826.77	0.045
827.21	0.045
827.64	0.044
828.08	0.043
828.51	0.042
828.94	0.043
829.38	0.047
829.81	0.045
830.25	0.044
830.68	0.045
831.11	0.049
831.55	0.050
831.98	0.043
832.42	0.041
832.85	0.046
833.28	0.047
833.72	0.047
834.15	0.050
834.58	0.051
835.02	0.048
835.45	0.043
835.88	0.049
836.32	0.050
836.75	0.043
837.19	0.047
837.62	0.051
838.05	0.051
838.49	0.049
838.92	0.051
839.35	0.058
839.79	0.043
840.22	0.045
840.65	0.051
841.09	0.044
841.52	0.046
841.95	0.051
842.39	0.048
842.82	0.050
843.25	0.048
843.68	0.054
844.12	0.055
844.55	0.047
844.98	0.049
845.42	0.054
845.85	0.047
846.28	0.046
846.71	0.054
847.15	0.055
847.58	0.049
848.01	0.046
848.45	0.055
848.88	0.054
849.31	0.048
849.74	0.050
850.18	0.052
850.61	0.053
851.04	0.052
851.47	0.053
851.91	0.050
852.34	0.052
852.77	0.052
853.20	0.055
853.64	0.049
854.07	0.048
854.50	0.050
854.93	0.054
855.36	0.048
855.80	0.047
856.23	0.052
856.66	0.052
857.09	0.053
857.52	0.056
857.96	0.055
858.39	0.055
858.82	0.052
859.25	0.050
859.68	0.055
860.12	0.045
860.55	0.050
860.98	0.060
861.41	0.054
861.84	0.051
862.27	0.050
862.71	0.052
863.14	0.049
863.57	0.049
864.00	0.056
864.43	0.058
864.86	0.052
865.30	0.055
865.73	0.057
866.16	0.058
866.59	0.051
867.02	0.052
867.45	0.054
867.88	0.054
868.31	0.055
868.75	0.057
869.18	0.064
869.61	0.055
870.04	0.052
870.47	0.053
870.90	0.061
871.33	0.052
871.76	0.057
872.19	0.055
872.62	0.056
873.06	0.057
873.49	0.057
873.92	0.058
874.35	0.053
874.78	0.061
875.21	0.065
875.64	0.057
876.07	0.050
876.50	0.064
876.93	0.058
877.36	0.053
877.79	0.057
878.22	0.059
878.65	0.062
879.08	0.056
879.51	0.057
879.94	0.065
880.37	0.055
880.80	0.060
881.23	0.064
881.67	0.060
882.10	0.059
882.53	0.058
882.96	0.062
883.39	0.060
883.82	0.056
884.25	0.055
884.68	0.065
885.11	0.062
885.54	0.067
885.97	0.064
886.39	0.060
886.82	0.061
887.25	0.063
887.68	0.064
888.11	0.065
888.54	0.064
888.97	0.059
889.40	0.063
889.83	0.062
890.26	0.059
890.69	0.067
891.12	0.066
891.55	0.067
891.98	0.065
892.41	0.067
892.84	0.068
893.27	0.064
893.70	0.066
894.13	0.069
894.56	0.061
894.98	0.067
895.41	0.066
895.84	0.067
896.27	0.069
896.70	0.072
897.13	0.070
897.56	0.063
897.99	0.065
898.42	0.071
898.85	0.071
899.27	0.066
899.70	0.061
900.13	0.065
900.56	0.068
900.99	0.068
901.42	0.070
901.85	0.069
902.28	0.067
902.70	0.067
903.13	0.070
903.56	0.066
903.99	0.062
904.42	0.063
904.85	0.068
905.27	0.070
905.70	0.070
906.13	0.071
906.56	0.070
906.99	0.071
907.42	0.071
907.84	0.069
908.27	0.071
908.70	0.073
909.13	0.069
909.56	0.073
909.98	0.064
910.41	0.068
910.84	0.069
911.27	0.072
911.70	0.071
912.12	0.072
912.55	0.069
912.98	0.070
913.41	0.069
913.84	0.070
914.26	0.068
914.69	0.066
915.12	0.070
915.55	0.065
915.97	0.070
916.40	0.069
916.83	0.066
917.26	0.071
917.68	0.071
918.11	0.065
918.54	0.069
918.97	0.072
919.39	0.068
919.82	0.070
920.25	0.070
920.67	0.068
921.10	0.074
921.53	0.072
921.96	0.075
922.38	0.077
922.81	0.074
923.24	0.077
923.66	0.075
924.09	0.077
924.52	0.078
924.94	0.077
925.37	0.074
925.80	0.073
926.22	0.077
926.65	0.072
927.08	0.078
927.50	0.081
927.93	0.086
928.36	0.082
928.78	0.083
929.21	0.084
929.64	0.086
930.06	0.081
930.49	0.083
930.92	0.082
931.34	0.090
931.77	0.090
932.20	0.087
932.62	0.085
933.05	0.091
933.47	0.091
933.90	0.092
934.33	0.098
934.75	0.100
935.18	0.092
935.61	0.097
936.03	0.099
936.46	0.098
936.88	0.099
937.31	0.101
937.73	0.107
938.16	0.104
938.59	0.104
939.01	0.108
939.44	0.113
939.86	0.103
940.29	0.112
940.71	0.115
941.14	0.113
941.57	0.116
941.99	0.119
942.42	0.129
942.84	0.123
943.27	0.130
943.69	0.125
944.12	0.137
944.54	0.132
944.97	0.132
945.39	0.134
945.82	0.128
946.24	0.147
946.67	0.138
947.09	0.147
947.52	0.142
947.94	0.150
948.37	0.154
948.79	0.154
949.22	0.153
949.64	0.155
950.07	0.152
950.49	0.161
950.92	0.171
951.34	0.172
951.77	0.179
952.19	0.173
952.62	0.173
953.04	0.178
953.47	0.181
953.89	0.190
954.32	0.182
954.74	0.194
955.17	0.189
955.59	0.190
956.01	0.206
956.44	0.209
956.86	0.203
957.29	0.207
957.71	0.211
958.14	0.215
958.56	0.209
958.98	0.218
959.41	0.219
959.83	0.217
960.26	0.226
960.68	0.220
961.10	0.225
961.53	0.229
961.95	0.225
962.38	0.227
962.80	0.225
963.22	0.225
963.65	0.234
964.07	0.230
964.50	0.228
964.92	0.231
965.34	0.231
965.77	0.233
966.19	0.233
966.61	0.235
967.04	0.234
967.46	0.239
967.88	0.234
968.31	0.229
968.73	0.237
969.15	0.233
969.58	0.236
970.00	0.234
970.42	0.242
970.85	0.234
971.27	0.239
971.69	0.245
972.12	0.243
972.54	0.235
972.96	0.243
973.39	0.242
973.81	0.237
974.23	0.240
974.65	0.243
975.08	0.244
975.50	0.245
975.92	0.240
976.35	0.233
976.77	0.238
977.19	0.242
977.61	0.238
978.04	0.240
978.46	0.244
978.88	0.243
979.30	0.245
979.73	0.244
980.15	0.246
980.57	0.247
980.99	0.247
981.42	0.247
981.84	0.244
982.26	0.250
982.68	0.238
983.11	0.236
983.53	0.247
983.95	0.235
984.37	0.240
984.79	0.242
985.22	0.239
985.64	0.239
986.06	0.232
986.48	0.233
986.90	0.239
987.33	0.240
987.75	0.233
988.17	0.241
988.59	0.235
989.01	0.235
989.43	0.237
989.86	0.236
990.28	0.231
990.70	0.226
991.12	0.227
991.54	0.228
991.96	0.234
992.39	0.233
992.81	0.227
993.23	0.227
993.65	0.232
994.07	0.225
994.49	0.232
994.91	0.218
995.34	0.224
995.76	0.222
996.18	0.227
996.60	0.219
997.02	0.217
997.44	0.221
997.86	0.221
998.28	0.221
998.70	0.235
999.12	0.230
999.55	0.214
999.97	0.214
1000.39	0.216
1000.81	0.224
1001.23	0.209
1001.65	0.212
1002.07	0.212
1002.49	0.206
1002.91	0.213
1003.33	0.203
1003.75	0.214
1004.17	0.206
1004.59	0.206
1005.01	0.215
1005.43	0.209
1005.85	0.206
1006.28	0.204
1006.70	0.207
1007.12	0.208
1007.54	0.211
1007.96	0.201
1008.38	0.200
1008.80	0.199
1009.22	0.199
1009.64	0.198
1010.06	0.202
1010.48	0.193
1010.90	0.190
1011.32	0.202
1011.74	0.191
1012.16	0.190
1012.58	0.193
1013.00	0.190
1013.42	0.178
1013.84	0.187
1014.26	0.189
1014.67	0.193
1015.09	0.182
1015.51	0.171
1015.93	0.187
1016.35	0.189
1016.77	0.190
1017.19	0.173
1017.61	0.176
1018.03	0.167
1018.45	0.183
1018.87	0.192
1019.29	0.180
1019.71	0.167
1020.13	0.175
1020.55	0.178
1020.97	0.167
1021.38	0.168
1021.80	0.174
1022.22	0.179
1022.64	0.161
1023.06	0.164
1023.48	0.164
1023.90	0.160
1024.32	0.171
1024.74	0.168
1025.15	0.153
1025.57	0.155
1025.99	0.160
1026.41	0.164
1026.83	0.160
1027.25	0.156
1027.67	0.163
1028.08	0.151
1028.50	0.163
1028.92	0.141
1029.34	0.149
1029.76	0.148
1030.18	0.144
1030.60	0.157
1031.01	0.158
1031.43	0.140
1031.85	0.136
1032.27	0.138
1032.69	0.140
1033.10	0.143
1033.52	0.150
1033.94	0.141
1034.36	0.143
1034.78	0.145
1035.19	0.138
1035.61	0.141
1036.03	0.121
1036.45	0.129
1036.87	0.136
1037.28	0.140
1037.70	0.116
1038.12	0.128
1038.54	0.151
1038.95	0.121
1039.37	0.147
1039.79	0.125
1040.21	0.138
1040.62	0.130
1041.04	0.120
1041.46	0.129
1041.88	0.132
1042.29	0.121
1042.71	0.108
1043.13	0.137
1043.55	0.111
1043.96	0.102
1044.38	0.116
1044.80	0.129
1045.21	0.119
1045.63	0.118
1046.05	0.116
1046.47	0.113
1046.88	0.107
1047.30	0.112
1047.72	0.119
1048.13	0.121
1048.55	0.125
1048.97	0.128
1049.38	0.106
1049.80	0.107
1050.22	0.107
1050.63	0.097
1051.05	0.103
1051.47	0.097
1051.88	0.114
1052.30	0.115
1052.72	0.089
1053.13	0.109
1053.55	0.108
1053.97	0.122
1054.38	0.125
1054.80	0.083
1055.21	0.137
1055.63	0.114
1056.05	0.110
1056.46	0.110
1056.88	0.138
1057.29	0.130
1057.71	0.109
1058.13	0.121
1058.54	0.112
1058.96	0.136
1059.37	0.098
1059.79	0.148
1060.21	0.123
1060.62	0.096
1061.04	0.136
1061.45	0.151
1061.87	0.104
1062.28	0.108
1062.70	0.143
1063.12	0.149
1063.53	0.125
1063.95	0.101
1064.36	0.080
1064.78	0.123
1065.19	0.098
1065.61	0.186
1066.02	0.138
1066.44	0.101
1066.85	0.031
1067.27	0.132
1067.68	0.123
1068.10	0.126
1068.51	0.086
1068.93	0.063
1069.35	0.126
1069.76	0.068
1070.17	0.155
1070.59	0.306
1071.00	0.122
1071.42	0.122
1071.83	0.249
1072.25	0.140
1072.66	0.185
1073.08	0.163
1073.49	0.277
1073.91	0.086
1074.32	0.098
1074.74	0.282
1075.15	0.154
1075.57	0.183
1075.98	0.101
1076.40	0.344
1076.81	0.121
1077.22	0.140
1077.64	0.155
1078.05	0.269
1078.47	0.066
1078.88	0.337
1079.30	0.209
1079.71	0.128
1080.12	0.178
1080.54	0.207
1080.95	0.344
1081.37	0.206
1081.78	0.141
1082.19	0.345
1082.61	0.348
1083.02	0.144
1083.44	0.065
1083.85	0.787
1084.26	0.044
1084.68	-0.124
1085.09	0.224
1085.50	0.679
1085.92	0.273
1086.33	-0.000
1086.74	0.350
1087.16	0.564
1087.57	0.556
1087.98	0.068
1088.40	0.318
1088.81	0.443
1089.22	-0.054
1089.64	1.192
1090.05	0.815
1090.46	0.168
1090.88	0.305
1091.29	0.559
1091.70	0.553
1092.12	0.310
1092.53	-0.000
1092.94	0.210
1093.36	0.008
1093.77	0.570
1094.18	1.065
1094.59	0.166
1095.01	0.125
1095.42	-0.025
1095.83	0.337
1096.25	0.600
1096.66	0.762
1097.07	0.158
1097.48	0.330
1097.90	0.699
1098.31	0.121
1098.72	0.261
1099.13	0.480
>>>>>End Processed Spectral Data<<<<<
