SpectraSuite Data File
++++++++++++++++++++++++++++++++++++
Date: Tue Jul 11 14:16:29 CEST 2017
User: IPCE
Dark Spectrum Present: Yes
Reference Spectrum Present: Yes
Number of Sampled Component Spectra: 1
Spectrometers: HR+C0708
Integration Time (usec): 1000 (HR+C0708)
Spectra Averaged: 10 (HR+C0708)
Boxcar Smoothing: 0 (HR+C0708)
Correct for Electrical Dark: No (HR+C0708)
Strobe/Lamp Enabled: No (HR+C0708)
Correct for Detector Non-linearity: No (HR+C0708)
Correct for Stray Light: No (HR+C0708)
Number of Pixels in Processed Spectrum: 2048
>>>>>Begin Processed Spectral Data<<<<<
188.76	0.213
189.23	1.200
189.70	0.390
190.17	-0.054
190.64	-0.000
191.12	0.295
191.59	0.194
192.06	0.198
192.53	-0.006
193.01	0.913
193.48	-0.000
193.95	0.236
194.42	0.556
194.90	0.503
195.37	0.007
195.84	-0.000
196.31	-0.000
196.78	0.855
197.26	1.106
197.73	0.100
198.20	-0.000
198.67	-0.398
199.14	-0.000
199.62	-0.000
200.09	0.240
200.56	0.186
201.03	0.470
201.50	0.323
201.97	0.364
202.45	0.426
202.92	0.283
203.39	0.392
203.86	0.359
204.33	0.268
204.80	0.477
205.28	0.470
205.75	0.239
206.22	0.371
206.69	0.392
207.16	0.117
207.63	0.410
208.11	0.306
208.58	0.602
209.05	0.316
209.52	0.309
209.99	0.483
210.46	0.326
210.93	0.354
211.41	0.440
211.88	0.394
212.35	0.210
212.82	0.507
213.29	0.358
213.76	0.284
214.23	0.306
214.70	0.493
215.18	0.686
215.65	0.446
216.12	0.455
216.59	0.577
217.06	0.513
217.53	0.217
218.00	0.493
218.47	0.533
218.94	0.343
219.41	0.319
219.89	0.447
220.36	0.535
220.83	0.438
221.30	0.394
221.77	0.463
222.24	0.586
222.71	0.340
223.18	0.500
223.65	0.596
224.12	0.616
224.59	0.459
225.06	0.566
225.54	0.697
226.01	0.681
226.48	0.522
226.95	0.828
227.42	0.850
227.89	0.618
228.36	0.924
228.83	1.020
229.30	1.030
229.77	1.002
230.24	1.131
230.71	1.139
231.18	1.093
231.65	1.130
232.12	1.197
232.59	1.239
233.06	1.189
233.53	1.445
234.00	1.357
234.47	1.528
234.94	1.474
235.41	1.582
235.88	1.737
236.35	1.581
236.82	1.722
237.29	1.889
237.76	1.888
238.23	1.757
238.70	1.881
239.17	1.988
239.64	1.957
240.11	1.955
240.58	2.004
241.05	2.045
241.52	1.984
241.99	2.078
242.46	2.246
242.93	2.194
243.40	2.057
243.87	2.236
244.34	2.341
244.81	2.114
245.28	2.283
245.75	2.209
246.22	2.148
246.69	2.233
247.16	2.220
247.63	2.368
248.10	2.293
248.57	2.095
249.04	2.347
249.51	2.118
249.98	2.141
250.45	2.131
250.92	2.063
251.39	2.113
251.85	1.988
252.32	1.858
252.79	1.798
253.26	1.702
253.73	1.603
254.20	1.528
254.67	1.425
255.14	1.341
255.61	1.311
256.08	1.253
256.55	1.183
257.02	1.139
257.49	1.105
257.95	1.070
258.42	1.030
258.89	0.999
259.36	0.976
259.83	0.944
260.30	0.918
260.77	0.912
261.24	0.886
261.71	0.864
262.17	0.851
262.64	0.837
263.11	0.822
263.58	0.808
264.05	0.791
264.52	0.779
264.99	0.769
265.46	0.758
265.92	0.755
266.39	0.736
266.86	0.725
267.33	0.717
267.80	0.709
268.27	0.704
268.74	0.691
269.20	0.685
269.67	0.680
270.14	0.668
270.61	0.663
271.08	0.656
271.55	0.650
272.01	0.640
272.48	0.634
272.95	0.634
273.42	0.629
273.89	0.620
274.36	0.614
274.82	0.610
275.29	0.605
275.76	0.600
276.23	0.603
276.70	0.597
277.16	0.593
277.63	0.593
278.10	0.586
278.57	0.587
279.04	0.579
279.50	0.578
279.97	0.580
280.44	0.575
280.91	0.574
281.38	0.576
281.84	0.574
282.31	0.568
282.78	0.571
283.25	0.569
283.72	0.569
284.18	0.570
284.65	0.570
285.12	0.568
285.59	0.567
286.05	0.567
286.52	0.569
286.99	0.570
287.46	0.568
287.92	0.571
288.39	0.571
288.86	0.569
289.33	0.565
289.79	0.565
290.26	0.569
290.73	0.563
291.20	0.565
291.66	0.567
292.13	0.560
292.60	0.552
293.07	0.554
293.53	0.551
294.00	0.545
294.47	0.539
294.93	0.532
295.40	0.526
295.87	0.519
296.34	0.515
296.80	0.510
297.27	0.498
297.74	0.492
298.20	0.485
298.67	0.483
299.14	0.471
299.60	0.463
300.07	0.456
300.54	0.447
301.01	0.440
301.47	0.430
301.94	0.420
302.41	0.417
302.87	0.404
303.34	0.406
303.81	0.395
304.27	0.384
304.74	0.380
305.21	0.373
305.67	0.370
306.14	0.362
306.61	0.359
307.07	0.353
307.54	0.346
308.01	0.339
308.47	0.339
308.94	0.333
309.40	0.326
309.87	0.324
310.34	0.321
310.80	0.318
311.27	0.313
311.74	0.311
312.20	0.312
312.67	0.306
313.13	0.303
313.60	0.301
314.07	0.301
314.53	0.297
315.00	0.292
315.47	0.294
315.93	0.293
316.40	0.290
316.86	0.288
317.33	0.286
317.80	0.287
318.26	0.285
318.73	0.282
319.19	0.280
319.66	0.275
320.13	0.278
320.59	0.275
321.06	0.274
321.52	0.271
321.99	0.266
322.45	0.266
322.92	0.266
323.39	0.262
323.85	0.263
324.32	0.262
324.78	0.256
325.25	0.258
325.71	0.256
326.18	0.256
326.64	0.254
327.11	0.250
327.58	0.252
328.04	0.249
328.51	0.247
328.97	0.248
329.44	0.245
329.90	0.242
330.37	0.240
330.83	0.240
331.30	0.236
331.76	0.238
332.23	0.233
332.69	0.232
333.16	0.231
333.62	0.229
334.09	0.230
334.56	0.230
335.02	0.225
335.49	0.226
335.95	0.222
336.42	0.222
336.88	0.217
337.35	0.217
337.81	0.216
338.28	0.214
338.74	0.214
339.20	0.214
339.67	0.211
340.13	0.210
340.60	0.209
341.06	0.209
341.53	0.208
341.99	0.206
342.46	0.204
342.92	0.206
343.39	0.205
343.85	0.199
344.32	0.199
344.78	0.200
345.25	0.196
345.71	0.200
346.17	0.199
346.64	0.198
347.10	0.196
347.57	0.192
348.03	0.192
348.50	0.189
348.96	0.190
349.43	0.187
349.89	0.189
350.35	0.183
350.82	0.189
351.28	0.182
351.75	0.181
352.21	0.180
352.67	0.178
353.14	0.174
353.60	0.172
354.07	0.168
354.53	0.168
355.00	0.165
355.46	0.167
355.92	0.160
356.39	0.159
356.85	0.152
357.31	0.156
357.78	0.149
358.24	0.147
358.71	0.145
359.17	0.143
359.63	0.140
360.10	0.138
360.56	0.129
361.03	0.130
361.49	0.126
361.95	0.122
362.42	0.124
362.88	0.124
363.34	0.122
363.81	0.119
364.27	0.118
364.73	0.116
365.20	0.118
365.66	0.117
366.12	0.119
366.59	0.116
367.05	0.115
367.51	0.117
367.98	0.112
368.44	0.114
368.90	0.112
369.37	0.114
369.83	0.112
370.29	0.112
370.76	0.109
371.22	0.113
371.68	0.109
372.15	0.109
372.61	0.108
373.07	0.109
373.54	0.109
374.00	0.110
374.46	0.108
374.92	0.110
375.39	0.110
375.85	0.105
376.31	0.109
376.78	0.108
377.24	0.107
377.70	0.108
378.16	0.107
378.63	0.107
379.09	0.105
379.55	0.108
380.01	0.105
380.48	0.106
380.94	0.106
381.40	0.107
381.87	0.108
382.33	0.106
382.79	0.107
383.25	0.106
383.72	0.103
384.18	0.106
384.64	0.102
385.10	0.102
385.56	0.103
386.03	0.105
386.49	0.104
386.95	0.103
387.41	0.104
387.88	0.100
388.34	0.101
388.80	0.101
389.26	0.099
389.72	0.104
390.19	0.104
390.65	0.104
391.11	0.103
391.57	0.104
392.04	0.101
392.50	0.102
392.96	0.103
393.42	0.102
393.88	0.102
394.34	0.102
394.81	0.100
395.27	0.099
395.73	0.101
396.19	0.098
396.65	0.101
397.12	0.100
397.58	0.097
398.04	0.101
398.50	0.100
398.96	0.099
399.42	0.102
399.89	0.098
400.35	0.099
400.81	0.100
401.27	0.096
401.73	0.098
402.19	0.099
402.65	0.095
403.12	0.095
403.58	0.093
404.04	0.094
404.50	0.096
404.96	0.094
405.42	0.092
405.88	0.094
406.34	0.092
406.81	0.097
407.27	0.091
407.73	0.093
408.19	0.091
408.65	0.093
409.11	0.092
409.57	0.091
410.03	0.090
410.49	0.088
410.96	0.087
411.42	0.088
411.88	0.090
412.34	0.088
412.80	0.090
413.26	0.089
413.72	0.092
414.18	0.086
414.64	0.086
415.10	0.089
415.56	0.085
416.02	0.083
416.48	0.087
416.95	0.087
417.41	0.089
417.87	0.085
418.33	0.086
418.79	0.087
419.25	0.085
419.71	0.090
420.17	0.085
420.63	0.087
421.09	0.085
421.55	0.085
422.01	0.086
422.47	0.090
422.93	0.087
423.39	0.088
423.85	0.086
424.31	0.087
424.77	0.087
425.23	0.085
425.69	0.083
426.15	0.086
426.61	0.085
427.07	0.084
427.53	0.086
427.99	0.088
428.45	0.086
428.91	0.085
429.37	0.084
429.83	0.085
430.29	0.084
430.75	0.086
431.21	0.083
431.67	0.085
432.13	0.081
432.59	0.083
433.05	0.085
433.51	0.083
433.97	0.082
434.43	0.085
434.89	0.084
435.35	0.080
435.81	0.081
436.27	0.081
436.73	0.083
437.19	0.084
437.65	0.081
438.11	0.081
438.57	0.083
439.03	0.078
439.48	0.081
439.94	0.084
440.40	0.080
440.86	0.078
441.32	0.076
441.78	0.082
442.24	0.081
442.70	0.083
443.16	0.078
443.62	0.084
444.08	0.079
444.54	0.081
444.99	0.079
445.45	0.080
445.91	0.080
446.37	0.079
446.83	0.081
447.29	0.078
447.75	0.079
448.21	0.080
448.67	0.076
449.12	0.081
449.58	0.078
450.04	0.079
450.50	0.077
450.96	0.079
451.42	0.077
451.88	0.080
452.34	0.078
452.79	0.077
453.25	0.079
453.71	0.079
454.17	0.077
454.63	0.078
455.09	0.078
455.55	0.079
456.00	0.079
456.46	0.077
456.92	0.077
457.38	0.078
457.84	0.077
458.30	0.077
458.75	0.080
459.21	0.078
459.67	0.079
460.13	0.080
460.59	0.079
461.04	0.078
461.50	0.077
461.96	0.076
462.42	0.077
462.88	0.076
463.33	0.078
463.79	0.080
464.25	0.078
464.71	0.079
465.17	0.078
465.62	0.079
466.08	0.078
466.54	0.079
467.00	0.078
467.46	0.078
467.91	0.077
468.37	0.079
468.83	0.077
469.29	0.079
469.74	0.078
470.20	0.079
470.66	0.080
471.12	0.081
471.57	0.078
472.03	0.079
472.49	0.078
472.95	0.079
473.40	0.079
473.86	0.082
474.32	0.080
474.78	0.078
475.23	0.079
475.69	0.075
476.15	0.078
476.60	0.080
477.06	0.079
477.52	0.077
477.98	0.079
478.43	0.078
478.89	0.080
479.35	0.080
479.80	0.078
480.26	0.077
480.72	0.078
481.18	0.082
481.63	0.080
482.09	0.077
482.55	0.079
483.00	0.080
483.46	0.077
483.92	0.076
484.37	0.079
484.83	0.076
485.29	0.078
485.74	0.077
486.20	0.079
486.66	0.082
487.11	0.078
487.57	0.077
488.03	0.081
488.48	0.078
488.94	0.079
489.40	0.079
489.85	0.079
490.31	0.079
490.77	0.077
491.22	0.079
491.68	0.077
492.13	0.078
492.59	0.080
493.05	0.078
493.50	0.080
493.96	0.079
494.42	0.078
494.87	0.079
495.33	0.077
495.78	0.079
496.24	0.080
496.70	0.079
497.15	0.077
497.61	0.080
498.06	0.077
498.52	0.079
498.98	0.080
499.43	0.078
499.89	0.078
500.34	0.080
500.80	0.080
501.25	0.079
501.71	0.077
502.17	0.080
502.62	0.078
503.08	0.079
503.53	0.078
503.99	0.078
504.44	0.079
504.90	0.076
505.36	0.079
505.81	0.078
506.27	0.079
506.72	0.079
507.18	0.077
507.63	0.076
508.09	0.078
508.54	0.076
509.00	0.077
509.45	0.077
509.91	0.077
510.36	0.078
510.82	0.077
511.27	0.080
511.73	0.079
512.19	0.077
512.64	0.077
513.10	0.075
513.55	0.075
514.01	0.076
514.46	0.077
514.92	0.078
515.37	0.078
515.83	0.079
516.28	0.076
516.73	0.079
517.19	0.077
517.64	0.076
518.10	0.076
518.55	0.075
519.01	0.076
519.46	0.074
519.92	0.076
520.37	0.075
520.83	0.078
521.28	0.076
521.74	0.075
522.19	0.075
522.65	0.075
523.10	0.076
523.55	0.076
524.01	0.074
524.46	0.078
524.92	0.074
525.37	0.075
525.83	0.078
526.28	0.077
526.73	0.076
527.19	0.074
527.64	0.075
528.10	0.076
528.55	0.076
529.01	0.078
529.46	0.077
529.91	0.076
530.37	0.076
530.82	0.077
531.28	0.077
531.73	0.076
532.18	0.078
532.64	0.075
533.09	0.078
533.54	0.078
534.00	0.079
534.45	0.077
534.91	0.077
535.36	0.079
535.81	0.079
536.27	0.081
536.72	0.079
537.17	0.079
537.63	0.080
538.08	0.080
538.54	0.080
538.99	0.082
539.44	0.081
539.90	0.079
540.35	0.079
540.80	0.083
541.26	0.081
541.71	0.083
542.16	0.083
542.62	0.083
543.07	0.083
543.52	0.083
543.98	0.082
544.43	0.083
544.88	0.084
545.34	0.084
545.79	0.083
546.24	0.086
546.69	0.086
547.15	0.086
547.60	0.087
548.05	0.088
548.51	0.088
548.96	0.087
549.41	0.086
549.86	0.085
550.32	0.088
550.77	0.088
551.22	0.087
551.68	0.088
552.13	0.090
552.58	0.092
553.03	0.091
553.49	0.089
553.94	0.092
554.39	0.094
554.84	0.091
555.30	0.094
555.75	0.094
556.20	0.092
556.65	0.094
557.11	0.097
557.56	0.093
558.01	0.096
558.46	0.097
558.92	0.096
559.37	0.100
559.82	0.099
560.27	0.100
560.72	0.100
561.18	0.102
561.63	0.100
562.08	0.101
562.53	0.101
562.99	0.104
563.44	0.104
563.89	0.103
564.34	0.102
564.79	0.105
565.25	0.106
565.70	0.108
566.15	0.108
566.60	0.106
567.05	0.109
567.50	0.110
567.96	0.108
568.41	0.111
568.86	0.112
569.31	0.112
569.76	0.112
570.21	0.111
570.67	0.115
571.12	0.116
571.57	0.116
572.02	0.118
572.47	0.115
572.92	0.116
573.37	0.120
573.83	0.118
574.28	0.121
574.73	0.120
575.18	0.123
575.63	0.124
576.08	0.123
576.53	0.125
576.98	0.124
577.44	0.127
577.89	0.127
578.34	0.130
578.79	0.128
579.24	0.132
579.69	0.132
580.14	0.134
580.59	0.134
581.04	0.134
581.49	0.136
581.95	0.139
582.40	0.139
582.85	0.140
583.30	0.142
583.75	0.143
584.20	0.144
584.65	0.146
585.10	0.147
585.55	0.148
586.00	0.146
586.45	0.150
586.90	0.153
587.35	0.153
587.80	0.155
588.25	0.159
588.71	0.160
589.16	0.161
589.61	0.164
590.06	0.165
590.51	0.165
590.96	0.169
591.41	0.172
591.86	0.172
592.31	0.175
592.76	0.174
593.21	0.176
593.66	0.180
594.11	0.181
594.56	0.185
595.01	0.186
595.46	0.188
595.91	0.190
596.36	0.192
596.81	0.193
597.26	0.196
597.71	0.198
598.16	0.200
598.61	0.201
599.06	0.202
599.51	0.204
599.96	0.206
600.41	0.210
600.86	0.209
601.31	0.209
601.76	0.217
602.21	0.214
602.65	0.219
603.10	0.221
603.55	0.221
604.00	0.222
604.45	0.226
604.90	0.228
605.35	0.229
605.80	0.229
606.25	0.232
606.70	0.234
607.15	0.234
607.60	0.236
608.05	0.239
608.50	0.240
608.95	0.241
609.39	0.244
609.84	0.245
610.29	0.246
610.74	0.245
611.19	0.246
611.64	0.251
612.09	0.251
612.54	0.250
612.99	0.251
613.44	0.252
613.88	0.253
614.33	0.255
614.78	0.256
615.23	0.258
615.68	0.255
616.13	0.256
616.58	0.258
617.03	0.259
617.47	0.260
617.92	0.261
618.37	0.262
618.82	0.260
619.27	0.264
619.72	0.262
620.17	0.264
620.61	0.264
621.06	0.265
621.51	0.268
621.96	0.266
622.41	0.267
622.86	0.269
623.30	0.267
623.75	0.269
624.20	0.270
624.65	0.272
625.10	0.271
625.54	0.272
625.99	0.275
626.44	0.276
626.89	0.275
627.34	0.278
627.78	0.279
628.23	0.278
628.68	0.278
629.13	0.279
629.58	0.282
630.02	0.283
630.47	0.286
630.92	0.286
631.37	0.289
631.81	0.288
632.26	0.291
632.71	0.295
633.16	0.295
633.61	0.295
634.05	0.301
634.50	0.301
634.95	0.304
635.40	0.307
635.84	0.306
636.29	0.309
636.74	0.309
637.18	0.316
637.63	0.317
638.08	0.318
638.53	0.322
638.97	0.325
639.42	0.329
639.87	0.330
640.32	0.334
640.76	0.335
641.21	0.336
641.66	0.339
642.10	0.344
642.55	0.347
643.00	0.348
643.44	0.353
643.89	0.355
644.34	0.359
644.79	0.361
645.23	0.367
645.68	0.371
646.13	0.373
646.57	0.377
647.02	0.378
647.47	0.383
647.91	0.384
648.36	0.391
648.81	0.392
649.25	0.391
649.70	0.395
650.15	0.403
650.59	0.406
651.04	0.406
651.48	0.407
651.93	0.410
652.38	0.413
652.82	0.414
653.27	0.418
653.72	0.423
654.16	0.425
654.61	0.426
655.06	0.430
655.50	0.430
655.95	0.432
656.39	0.436
656.84	0.439
657.29	0.441
657.73	0.441
658.18	0.445
658.62	0.448
659.07	0.447
659.52	0.450
659.96	0.451
660.41	0.451
660.85	0.453
661.30	0.457
661.74	0.454
662.19	0.458
662.64	0.458
663.08	0.459
663.53	0.459
663.97	0.460
664.42	0.460
664.86	0.460
665.31	0.463
665.75	0.462
666.20	0.460
666.65	0.458
667.09	0.457
667.54	0.454
667.98	0.451
668.43	0.452
668.87	0.447
669.32	0.445
669.76	0.445
670.21	0.440
670.65	0.436
671.10	0.433
671.54	0.427
671.99	0.424
672.43	0.418
672.88	0.415
673.32	0.408
673.77	0.399
674.21	0.395
674.66	0.387
675.10	0.379
675.55	0.374
675.99	0.368
676.44	0.359
676.88	0.353
677.33	0.345
677.77	0.335
678.22	0.327
678.66	0.324
679.11	0.315
679.55	0.307
679.99	0.297
680.44	0.292
680.88	0.281
681.33	0.274
681.77	0.265
682.22	0.258
682.66	0.249
683.11	0.243
683.55	0.236
683.99	0.225
684.44	0.219
684.88	0.215
685.33	0.204
685.77	0.199
686.21	0.193
686.66	0.185
687.10	0.178
687.55	0.174
687.99	0.167
688.44	0.162
688.88	0.157
689.32	0.151
689.77	0.146
690.21	0.141
690.65	0.139
691.10	0.132
691.54	0.127
691.99	0.123
692.43	0.120
692.87	0.116
693.32	0.111
693.76	0.109
694.20	0.107
694.65	0.103
695.09	0.100
695.53	0.097
695.98	0.095
696.42	0.090
696.86	0.085
697.31	0.084
697.75	0.085
698.19	0.081
698.64	0.078
699.08	0.081
699.52	0.076
699.97	0.073
700.41	0.073
700.85	0.072
701.30	0.070
701.74	0.068
702.18	0.066
702.63	0.065
703.07	0.065
703.51	0.065
703.96	0.064
704.40	0.061
704.84	0.059
705.28	0.059
705.73	0.057
706.17	0.058
706.61	0.056
707.06	0.056
707.50	0.052
707.94	0.050
708.38	0.052
708.83	0.053
709.27	0.052
709.71	0.052
710.15	0.051
710.60	0.052
711.04	0.050
711.48	0.050
711.92	0.053
712.37	0.048
712.81	0.047
713.25	0.047
713.69	0.049
714.13	0.044
714.58	0.045
715.02	0.047
715.46	0.046
715.90	0.047
716.35	0.046
716.79	0.047
717.23	0.048
717.67	0.047
718.11	0.044
718.56	0.045
719.00	0.042
719.44	0.047
719.88	0.044
720.32	0.046
720.76	0.045
721.21	0.046
721.65	0.045
722.09	0.046
722.53	0.045
722.97	0.046
723.41	0.045
723.86	0.046
724.30	0.044
724.74	0.046
725.18	0.046
725.62	0.047
726.06	0.048
726.50	0.046
726.95	0.045
727.39	0.044
727.83	0.045
728.27	0.045
728.71	0.046
729.15	0.047
729.59	0.047
730.03	0.045
730.48	0.049
730.92	0.045
731.36	0.045
731.80	0.044
732.24	0.047
732.68	0.046
733.12	0.048
733.56	0.050
734.00	0.049
734.44	0.048
734.89	0.046
735.33	0.049
735.77	0.048
736.21	0.047
736.65	0.047
737.09	0.045
737.53	0.050
737.97	0.051
738.41	0.049
738.85	0.049
739.29	0.049
739.73	0.047
740.17	0.047
740.61	0.048
741.05	0.046
741.49	0.047
741.93	0.044
742.37	0.047
742.81	0.049
743.26	0.048
743.70	0.047
744.14	0.049
744.58	0.047
745.02	0.047
745.46	0.049
745.90	0.047
746.34	0.048
746.78	0.048
747.22	0.046
747.66	0.046
748.10	0.047
748.54	0.048
748.98	0.047
749.42	0.046
749.86	0.047
750.29	0.049
750.73	0.049
751.17	0.045
751.61	0.047
752.05	0.048
752.49	0.044
752.93	0.045
753.37	0.048
753.81	0.048
754.25	0.045
754.69	0.045
755.13	0.046
755.57	0.046
756.01	0.046
756.45	0.044
756.89	0.048
757.33	0.047
757.77	0.044
758.21	0.047
758.64	0.045
759.08	0.044
759.52	0.045
759.96	0.046
760.40	0.045
760.84	0.045
761.28	0.047
761.72	0.046
762.16	0.045
762.60	0.045
763.03	0.043
763.47	0.040
763.91	0.044
764.35	0.045
764.79	0.047
765.23	0.042
765.67	0.048
766.11	0.044
766.54	0.045
766.98	0.044
767.42	0.044
767.86	0.045
768.30	0.042
768.74	0.043
769.17	0.047
769.61	0.047
770.05	0.046
770.49	0.044
770.93	0.046
771.37	0.045
771.80	0.045
772.24	0.044
772.68	0.047
773.12	0.041
773.56	0.047
774.00	0.045
774.43	0.046
774.87	0.044
775.31	0.043
775.75	0.045
776.19	0.045
776.62	0.048
777.06	0.044
777.50	0.045
777.94	0.047
778.37	0.045
778.81	0.045
779.25	0.046
779.69	0.044
780.13	0.042
780.56	0.045
781.00	0.045
781.44	0.043
781.88	0.047
782.31	0.044
782.75	0.048
783.19	0.047
783.63	0.044
784.06	0.045
784.50	0.043
784.94	0.044
785.37	0.044
785.81	0.045
786.25	0.042
786.69	0.046
787.12	0.046
787.56	0.048
788.00	0.045
788.43	0.043
788.87	0.045
789.31	0.046
789.75	0.049
790.18	0.045
790.62	0.042
791.06	0.041
791.49	0.045
791.93	0.044
792.37	0.045
792.80	0.042
793.24	0.045
793.68	0.045
794.11	0.044
794.55	0.043
794.99	0.043
795.42	0.039
795.86	0.045
796.30	0.044
796.73	0.043
797.17	0.045
797.61	0.045
798.04	0.044
798.48	0.045
798.91	0.045
799.35	0.045
799.79	0.045
800.22	0.040
800.66	0.042
801.10	0.043
801.53	0.049
801.97	0.048
802.40	0.043
802.84	0.043
803.28	0.046
803.71	0.043
804.15	0.046
804.58	0.045
805.02	0.042
805.46	0.047
805.89	0.048
806.33	0.042
806.76	0.044
807.20	0.035
807.63	0.042
808.07	0.044
808.51	0.039
808.94	0.042
809.38	0.045
809.81	0.036
810.25	0.044
810.68	0.045
811.12	0.041
811.55	0.045
811.99	0.040
812.42	0.040
812.86	0.046
813.29	0.046
813.73	0.042
814.17	0.045
814.60	0.039
815.04	0.044
815.47	0.045
815.91	0.043
816.34	0.045
816.78	0.043
817.21	0.042
817.65	0.043
818.08	0.045
818.52	0.049
818.95	0.048
819.39	0.039
819.82	0.043
820.25	0.040
820.69	0.040
821.12	0.043
821.56	0.049
821.99	0.045
822.43	0.041
822.86	0.038
823.30	0.045
823.73	0.040
824.17	0.043
824.60	0.045
825.04	0.047
825.47	0.041
825.90	0.041
826.34	0.045
826.77	0.044
827.21	0.046
827.64	0.048
828.08	0.050
828.51	0.042
828.94	0.044
829.38	0.049
829.81	0.047
830.25	0.044
830.68	0.051
831.11	0.052
831.55	0.051
831.98	0.047
832.42	0.044
832.85	0.051
833.28	0.050
833.72	0.052
834.15	0.051
834.58	0.050
835.02	0.047
835.45	0.043
835.88	0.049
836.32	0.051
836.75	0.050
837.19	0.051
837.62	0.054
838.05	0.054
838.49	0.049
838.92	0.052
839.35	0.056
839.79	0.048
840.22	0.046
840.65	0.055
841.09	0.049
841.52	0.051
841.95	0.054
842.39	0.050
842.82	0.049
843.25	0.052
843.68	0.055
844.12	0.055
844.55	0.047
844.98	0.054
845.42	0.059
845.85	0.050
846.28	0.049
846.71	0.056
847.15	0.056
847.58	0.055
848.01	0.044
848.45	0.058
848.88	0.052
849.31	0.049
849.74	0.054
850.18	0.060
850.61	0.048
851.04	0.051
851.47	0.053
851.91	0.057
852.34	0.058
852.77	0.055
853.20	0.062
853.64	0.049
854.07	0.050
854.50	0.052
854.93	0.061
855.36	0.051
855.80	0.055
856.23	0.057
856.66	0.053
857.09	0.056
857.52	0.052
857.96	0.054
858.39	0.052
858.82	0.051
859.25	0.057
859.68	0.058
860.12	0.046
860.55	0.052
860.98	0.061
861.41	0.050
861.84	0.055
862.27	0.052
862.71	0.059
863.14	0.056
863.57	0.050
864.00	0.063
864.43	0.060
864.86	0.053
865.30	0.057
865.73	0.062
866.16	0.054
866.59	0.054
867.02	0.054
867.45	0.054
867.88	0.055
868.31	0.059
868.75	0.060
869.18	0.064
869.61	0.054
870.04	0.054
870.47	0.058
870.90	0.059
871.33	0.059
871.76	0.053
872.19	0.059
872.62	0.057
873.06	0.056
873.49	0.059
873.92	0.062
874.35	0.062
874.78	0.059
875.21	0.068
875.64	0.055
876.07	0.055
876.50	0.070
876.93	0.066
877.36	0.059
877.79	0.060
878.22	0.060
878.65	0.065
879.08	0.058
879.51	0.061
879.94	0.060
880.37	0.060
880.80	0.063
881.23	0.059
881.67	0.063
882.10	0.062
882.53	0.062
882.96	0.062
883.39	0.065
883.82	0.058
884.25	0.063
884.68	0.070
885.11	0.055
885.54	0.068
885.97	0.070
886.39	0.064
886.82	0.069
887.25	0.062
887.68	0.067
888.11	0.066
888.54	0.064
888.97	0.062
889.40	0.066
889.83	0.070
890.26	0.062
890.69	0.070
891.12	0.069
891.55	0.070
891.98	0.065
892.41	0.070
892.84	0.074
893.27	0.063
893.70	0.070
894.13	0.072
894.56	0.067
894.98	0.066
895.41	0.069
895.84	0.069
896.27	0.073
896.70	0.073
897.13	0.072
897.56	0.073
897.99	0.068
898.42	0.073
898.85	0.071
899.27	0.065
899.70	0.070
900.13	0.067
900.56	0.073
900.99	0.071
901.42	0.073
901.85	0.071
902.28	0.069
902.70	0.067
903.13	0.070
903.56	0.072
903.99	0.071
904.42	0.068
904.85	0.072
905.27	0.067
905.70	0.072
906.13	0.072
906.56	0.070
906.99	0.072
907.42	0.070
907.84	0.073
908.27	0.071
908.70	0.075
909.13	0.073
909.56	0.075
909.98	0.069
910.41	0.070
910.84	0.072
911.27	0.077
911.70	0.078
912.12	0.072
912.55	0.074
912.98	0.074
913.41	0.069
913.84	0.071
914.26	0.074
914.69	0.069
915.12	0.070
915.55	0.070
915.97	0.071
916.40	0.070
916.83	0.070
917.26	0.076
917.68	0.076
918.11	0.070
918.54	0.070
918.97	0.075
919.39	0.075
919.82	0.073
920.25	0.071
920.67	0.072
921.10	0.076
921.53	0.073
921.96	0.077
922.38	0.078
922.81	0.075
923.24	0.080
923.66	0.083
924.09	0.079
924.52	0.081
924.94	0.078
925.37	0.079
925.80	0.075
926.22	0.081
926.65	0.076
927.08	0.079
927.50	0.084
927.93	0.085
928.36	0.084
928.78	0.085
929.21	0.087
929.64	0.084
930.06	0.085
930.49	0.084
930.92	0.087
931.34	0.093
931.77	0.096
932.20	0.091
932.62	0.088
933.05	0.094
933.47	0.096
933.90	0.097
934.33	0.100
934.75	0.101
935.18	0.102
935.61	0.100
936.03	0.107
936.46	0.106
936.88	0.102
937.31	0.106
937.73	0.113
938.16	0.110
938.59	0.112
939.01	0.113
939.44	0.111
939.86	0.116
940.29	0.121
940.71	0.114
941.14	0.119
941.57	0.123
941.99	0.121
942.42	0.131
942.84	0.128
943.27	0.130
943.69	0.132
944.12	0.134
944.54	0.140
944.97	0.142
945.39	0.143
945.82	0.138
946.24	0.149
946.67	0.142
947.09	0.153
947.52	0.145
947.94	0.153
948.37	0.159
948.79	0.158
949.22	0.153
949.64	0.161
950.07	0.162
950.49	0.170
950.92	0.168
951.34	0.174
951.77	0.182
952.19	0.174
952.62	0.177
953.04	0.184
953.47	0.185
953.89	0.192
954.32	0.192
954.74	0.196
955.17	0.197
955.59	0.196
956.01	0.205
956.44	0.211
956.86	0.209
957.29	0.210
957.71	0.215
958.14	0.211
958.56	0.219
958.98	0.222
959.41	0.219
959.83	0.222
960.26	0.221
960.68	0.223
961.10	0.228
961.53	0.229
961.95	0.230
962.38	0.236
962.80	0.231
963.22	0.233
963.65	0.239
964.07	0.230
964.50	0.242
964.92	0.231
965.34	0.242
965.77	0.241
966.19	0.234
966.61	0.247
967.04	0.246
967.46	0.243
967.88	0.243
968.31	0.240
968.73	0.241
969.15	0.242
969.58	0.240
970.00	0.246
970.42	0.250
970.85	0.238
971.27	0.245
971.69	0.248
972.12	0.248
972.54	0.242
972.96	0.256
973.39	0.248
973.81	0.244
974.23	0.243
974.65	0.248
975.08	0.242
975.50	0.245
975.92	0.244
976.35	0.241
976.77	0.247
977.19	0.250
977.61	0.243
978.04	0.244
978.46	0.249
978.88	0.249
979.30	0.248
979.73	0.245
980.15	0.239
980.57	0.248
980.99	0.248
981.42	0.249
981.84	0.252
982.26	0.250
982.68	0.241
983.11	0.244
983.53	0.249
983.95	0.243
984.37	0.241
984.79	0.245
985.22	0.245
985.64	0.245
986.06	0.239
986.48	0.244
986.90	0.238
987.33	0.244
987.75	0.242
988.17	0.242
988.59	0.237
989.01	0.243
989.43	0.234
989.86	0.234
990.28	0.238
990.70	0.238
991.12	0.233
991.54	0.238
991.96	0.228
992.39	0.231
992.81	0.237
993.23	0.226
993.65	0.244
994.07	0.224
994.49	0.235
994.91	0.224
995.34	0.230
995.76	0.219
996.18	0.232
996.60	0.228
997.02	0.232
997.44	0.221
997.86	0.224
998.28	0.224
998.70	0.228
999.12	0.229
999.55	0.230
999.97	0.226
1000.39	0.225
1000.81	0.226
1001.23	0.214
1001.65	0.211
1002.07	0.218
1002.49	0.211
1002.91	0.219
1003.33	0.214
1003.75	0.213
1004.17	0.216
1004.59	0.214
1005.01	0.213
1005.43	0.215
1005.85	0.206
1006.28	0.201
1006.70	0.210
1007.12	0.205
1007.54	0.205
1007.96	0.208
1008.38	0.207
1008.80	0.201
1009.22	0.204
1009.64	0.197
1010.06	0.202
1010.48	0.199
1010.90	0.206
1011.32	0.194
1011.74	0.185
1012.16	0.187
1012.58	0.191
1013.00	0.192
1013.42	0.186
1013.84	0.184
1014.26	0.190
1014.67	0.192
1015.09	0.191
1015.51	0.186
1015.93	0.197
1016.35	0.197
1016.77	0.185
1017.19	0.181
1017.61	0.179
1018.03	0.180
1018.45	0.190
1018.87	0.184
1019.29	0.182
1019.71	0.175
1020.13	0.184
1020.55	0.185
1020.97	0.173
1021.38	0.170
1021.80	0.174
1022.22	0.178
1022.64	0.173
1023.06	0.157
1023.48	0.155
1023.90	0.179
1024.32	0.161
1024.74	0.171
1025.15	0.169
1025.57	0.160
1025.99	0.159
1026.41	0.169
1026.83	0.142
1027.25	0.167
1027.67	0.148
1028.08	0.152
1028.50	0.163
1028.92	0.146
1029.34	0.143
1029.76	0.151
1030.18	0.151
1030.60	0.159
1031.01	0.158
1031.43	0.140
1031.85	0.149
1032.27	0.144
1032.69	0.137
1033.10	0.160
1033.52	0.145
1033.94	0.123
1034.36	0.134
1034.78	0.140
1035.19	0.140
1035.61	0.147
1036.03	0.138
1036.45	0.139
1036.87	0.129
1037.28	0.157
1037.70	0.145
1038.12	0.126
1038.54	0.129
1038.95	0.133
1039.37	0.142
1039.79	0.133
1040.21	0.139
1040.62	0.136
1041.04	0.135
1041.46	0.116
1041.88	0.119
1042.29	0.151
1042.71	0.130
1043.13	0.136
1043.55	0.137
1043.96	0.118
1044.38	0.142
1044.80	0.125
1045.21	0.129
1045.63	0.132
1046.05	0.123
1046.47	0.118
1046.88	0.128
1047.30	0.112
1047.72	0.126
1048.13	0.140
1048.55	0.121
1048.97	0.111
1049.38	0.115
1049.80	0.119
1050.22	0.129
1050.63	0.111
1051.05	0.122
1051.47	0.128
1051.88	0.109
1052.30	0.112
1052.72	0.121
1053.13	0.115
1053.55	0.115
1053.97	0.114
1054.38	0.119
1054.80	0.095
1055.21	0.148
1055.63	0.107
1056.05	0.152
1056.46	0.096
1056.88	0.124
1057.29	0.145
1057.71	0.132
1058.13	0.123
1058.54	0.134
1058.96	0.120
1059.37	0.144
1059.79	0.137
1060.21	0.127
1060.62	0.154
1061.04	0.118
1061.45	0.123
1061.87	0.105
1062.28	0.106
1062.70	0.152
1063.12	0.116
1063.53	0.125
1063.95	0.118
1064.36	0.069
1064.78	0.120
1065.19	0.097
1065.61	0.104
1066.02	0.114
1066.44	0.132
1066.85	0.081
1067.27	0.161
1067.68	0.152
1068.10	0.124
1068.51	0.110
1068.93	0.060
1069.35	0.226
1069.76	0.163
1070.17	0.113
1070.59	0.145
1071.00	0.286
1071.42	0.133
1071.83	0.164
1072.25	0.244
1072.66	0.180
1073.08	0.160
1073.49	0.252
1073.91	0.040
1074.32	0.148
1074.74	0.082
1075.15	0.110
1075.57	0.491
1075.98	0.189
1076.40	0.289
1076.81	0.206
1077.22	0.096
1077.64	0.114
1078.05	0.433
1078.47	0.306
1078.88	0.442
1079.30	0.250
1079.71	0.004
1080.12	0.528
1080.54	0.102
1080.95	0.224
1081.37	0.142
1081.78	0.342
1082.19	0.495
1082.61	0.272
1083.02	0.218
1083.44	0.374
1083.85	0.318
1084.26	0.035
1084.68	0.394
1085.09	0.220
1085.50	0.064
1085.92	0.578
1086.33	0.878
1086.74	0.563
1087.16	0.324
1087.57	0.278
1087.98	0.670
1088.40	0.350
1088.81	0.132
1089.22	0.959
1089.64	-0.000
1090.05	0.116
1090.46	0.162
1090.88	0.165
1091.29	0.366
1091.70	0.608
1092.12	0.748
1092.53	-0.000
1092.94	0.096
1093.36	-0.074
1093.77	-0.000
1094.18	0.315
1094.59	0.060
1095.01	0.621
1095.42	0.137
1095.83	0.432
1096.25	0.971
1096.66	0.172
1097.07	0.329
1097.48	0.344
1097.90	-0.139
1098.31	0.661
1098.72	0.242
1099.13	0.241
>>>>>End Processed Spectral Data<<<<<
