SpectraSuite Data File
++++++++++++++++++++++++++++++++++++
Date: Tue Mar 29 11:38:29 CEST 2016
User: IPCE
Dark Spectrum Present: Yes
Reference Spectrum Present: Yes
Number of Sampled Component Spectra: 1
Spectrometers: HR+C0708
Integration Time (usec): 1000 (HR+C0708)
Spectra Averaged: 10 (HR+C0708)
Boxcar Smoothing: 0 (HR+C0708)
Correct for Electrical Dark: No (HR+C0708)
Strobe/Lamp Enabled: No (HR+C0708)
Correct for Detector Non-linearity: No (HR+C0708)
Correct for Stray Light: No (HR+C0708)
Number of Pixels in Processed Spectrum: 2048
>>>>>Begin Processed Spectral Data<<<<<
188.76	0.951
189.23	-0.000
189.70	-0.000
190.17	-0.000
190.64	-0.000
191.12	-0.000
191.59	-0.000
192.06	-0.000
192.53	-0.000
193.01	-0.000
193.48	-0.000
193.95	-0.000
194.42	-0.000
194.90	-0.000
195.37	-0.000
195.84	0.857
196.31	-0.000
196.78	-0.000
197.26	-0.000
197.73	-0.000
198.20	-0.000
198.67	-0.000
199.14	-0.000
199.62	-0.000
200.09	0.724
200.56	0.451
201.03	0.472
201.50	0.464
201.97	0.493
202.45	0.485
202.92	0.611
203.39	0.657
203.86	0.437
204.33	0.490
204.80	0.652
205.28	0.501
205.75	0.552
206.22	0.576
206.69	0.432
207.16	0.416
207.63	0.432
208.11	0.634
208.58	0.514
209.05	0.377
209.52	0.628
209.99	0.363
210.46	0.469
210.93	0.415
211.41	0.508
211.88	0.577
212.35	0.569
212.82	0.414
213.29	0.502
213.76	0.480
214.23	0.548
214.70	0.824
215.18	0.594
215.65	0.495
216.12	0.581
216.59	0.634
217.06	0.688
217.53	0.674
218.00	0.849
218.47	1.172
218.94	0.679
219.41	0.641
219.89	0.814
220.36	0.807
220.83	0.769
221.30	0.784
221.77	0.862
222.24	1.067
222.71	0.999
223.18	0.961
223.65	1.076
224.12	1.001
224.59	0.985
225.06	1.123
225.54	1.132
226.01	1.267
226.48	1.438
226.95	1.255
227.42	1.476
227.89	1.437
228.36	1.273
228.83	1.568
229.30	1.587
229.77	1.497
230.24	1.585
230.71	1.726
231.18	1.848
231.65	1.609
232.12	1.641
232.59	1.647
233.06	1.705
233.53	1.803
234.00	1.933
234.47	2.094
234.94	1.910
235.41	1.965
235.88	1.944
236.35	2.202
236.82	2.181
237.29	2.081
237.76	2.034
238.23	2.131
238.70	2.156
239.17	2.238
239.64	2.216
240.11	2.136
240.58	2.219
241.05	2.214
241.52	2.393
241.99	2.290
242.46	2.175
242.93	2.280
243.40	2.373
243.87	2.154
244.34	2.395
244.81	2.185
245.28	2.188
245.75	2.337
246.22	2.263
246.69	2.564
247.16	2.266
247.63	2.337
248.10	2.278
248.57	2.297
249.04	2.450
249.51	2.284
249.98	2.379
250.45	2.214
250.92	2.306
251.39	2.249
251.85	2.235
252.32	2.120
252.79	2.060
253.26	2.016
253.73	1.935
254.20	1.917
254.67	1.838
255.14	1.754
255.61	1.664
256.08	1.572
256.55	1.506
257.02	1.457
257.49	1.390
257.95	1.323
258.42	1.293
258.89	1.236
259.36	1.188
259.83	1.153
260.30	1.114
260.77	1.081
261.24	1.046
261.71	1.014
262.17	0.988
262.64	0.958
263.11	0.930
263.58	0.902
264.05	0.875
264.52	0.850
264.99	0.828
265.46	0.804
265.92	0.784
266.39	0.759
266.86	0.742
267.33	0.720
267.80	0.701
268.27	0.683
268.74	0.661
269.20	0.646
269.67	0.627
270.14	0.615
270.61	0.597
271.08	0.581
271.55	0.567
272.01	0.555
272.48	0.539
272.95	0.525
273.42	0.511
273.89	0.500
274.36	0.485
274.82	0.471
275.29	0.462
275.76	0.452
276.23	0.443
276.70	0.431
277.16	0.421
277.63	0.414
278.10	0.399
278.57	0.395
279.04	0.381
279.50	0.376
279.97	0.366
280.44	0.360
280.91	0.352
281.38	0.343
281.84	0.338
282.31	0.329
282.78	0.324
283.25	0.317
283.72	0.312
284.18	0.307
284.65	0.299
285.12	0.293
285.59	0.290
286.05	0.279
286.52	0.276
286.99	0.274
287.46	0.266
287.92	0.262
288.39	0.256
288.86	0.252
289.33	0.243
289.79	0.240
290.26	0.237
290.73	0.231
291.20	0.226
291.66	0.225
292.13	0.220
292.60	0.216
293.07	0.210
293.53	0.208
294.00	0.202
294.47	0.200
294.93	0.193
295.40	0.190
295.87	0.187
296.34	0.182
296.80	0.182
297.27	0.178
297.74	0.174
298.20	0.169
298.67	0.167
299.14	0.162
299.60	0.162
300.07	0.159
300.54	0.154
301.01	0.152
301.47	0.149
301.94	0.149
302.41	0.143
302.87	0.142
303.34	0.139
303.81	0.138
304.27	0.134
304.74	0.135
305.21	0.130
305.67	0.127
306.14	0.127
306.61	0.124
307.07	0.121
307.54	0.118
308.01	0.118
308.47	0.116
308.94	0.113
309.40	0.114
309.87	0.110
310.34	0.107
310.80	0.107
311.27	0.106
311.74	0.105
312.20	0.105
312.67	0.102
313.13	0.102
313.60	0.099
314.07	0.101
314.53	0.098
315.00	0.098
315.47	0.096
315.93	0.095
316.40	0.093
316.86	0.093
317.33	0.092
317.80	0.090
318.26	0.091
318.73	0.089
319.19	0.088
319.66	0.086
320.13	0.088
320.59	0.087
321.06	0.084
321.52	0.084
321.99	0.084
322.45	0.089
322.92	0.084
323.39	0.083
323.85	0.085
324.32	0.082
324.78	0.085
325.25	0.081
325.71	0.082
326.18	0.082
326.64	0.081
327.11	0.080
327.58	0.080
328.04	0.080
328.51	0.078
328.97	0.079
329.44	0.077
329.90	0.079
330.37	0.078
330.83	0.076
331.30	0.076
331.76	0.078
332.23	0.077
332.69	0.080
333.16	0.074
333.62	0.077
334.09	0.075
334.56	0.072
335.02	0.074
335.49	0.076
335.95	0.075
336.42	0.074
336.88	0.075
337.35	0.075
337.81	0.074
338.28	0.073
338.74	0.072
339.20	0.073
339.67	0.072
340.13	0.070
340.60	0.071
341.06	0.071
341.53	0.070
341.99	0.070
342.46	0.072
342.92	0.071
343.39	0.068
343.85	0.072
344.32	0.071
344.78	0.072
345.25	0.068
345.71	0.071
346.17	0.070
346.64	0.067
347.10	0.069
347.57	0.067
348.03	0.068
348.50	0.065
348.96	0.066
349.43	0.066
349.89	0.066
350.35	0.066
350.82	0.069
351.28	0.066
351.75	0.071
352.21	0.066
352.67	0.068
353.14	0.069
353.60	0.067
354.07	0.068
354.53	0.067
355.00	0.064
355.46	0.068
355.92	0.064
356.39	0.065
356.85	0.068
357.31	0.063
357.78	0.064
358.24	0.063
358.71	0.060
359.17	0.060
359.63	0.059
360.10	0.063
360.56	0.057
361.03	0.060
361.49	0.059
361.95	0.061
362.42	0.061
362.88	0.056
363.34	0.054
363.81	0.059
364.27	0.059
364.73	0.054
365.20	0.059
365.66	0.056
366.12	0.055
366.59	0.055
367.05	0.052
367.51	0.053
367.98	0.054
368.44	0.054
368.90	0.055
369.37	0.054
369.83	0.052
370.29	0.052
370.76	0.052
371.22	0.052
371.68	0.054
372.15	0.051
372.61	0.051
373.07	0.050
373.54	0.049
374.00	0.050
374.46	0.047
374.92	0.050
375.39	0.048
375.85	0.049
376.31	0.047
376.78	0.047
377.24	0.047
377.70	0.046
378.16	0.048
378.63	0.048
379.09	0.048
379.55	0.044
380.01	0.046
380.48	0.045
380.94	0.044
381.40	0.043
381.87	0.044
382.33	0.047
382.79	0.042
383.25	0.044
383.72	0.045
384.18	0.044
384.64	0.042
385.10	0.041
385.56	0.044
386.03	0.041
386.49	0.043
386.95	0.041
387.41	0.043
387.88	0.041
388.34	0.043
388.80	0.043
389.26	0.039
389.72	0.042
390.19	0.040
390.65	0.040
391.11	0.043
391.57	0.039
392.04	0.037
392.50	0.038
392.96	0.039
393.42	0.039
393.88	0.038
394.34	0.039
394.81	0.039
395.27	0.039
395.73	0.039
396.19	0.038
396.65	0.037
397.12	0.040
397.58	0.039
398.04	0.038
398.50	0.039
398.96	0.036
399.42	0.038
399.89	0.037
400.35	0.038
400.81	0.039
401.27	0.039
401.73	0.041
402.19	0.039
402.65	0.038
403.12	0.036
403.58	0.039
404.04	0.038
404.50	0.036
404.96	0.037
405.42	0.038
405.88	0.038
406.34	0.038
406.81	0.038
407.27	0.037
407.73	0.037
408.19	0.036
408.65	0.034
409.11	0.037
409.57	0.038
410.03	0.036
410.49	0.035
410.96	0.037
411.42	0.040
411.88	0.035
412.34	0.038
412.80	0.037
413.26	0.033
413.72	0.038
414.18	0.037
414.64	0.035
415.10	0.037
415.56	0.037
416.02	0.037
416.48	0.035
416.95	0.036
417.41	0.036
417.87	0.036
418.33	0.036
418.79	0.035
419.25	0.036
419.71	0.036
420.17	0.031
420.63	0.036
421.09	0.037
421.55	0.035
422.01	0.035
422.47	0.037
422.93	0.038
423.39	0.039
423.85	0.037
424.31	0.035
424.77	0.036
425.23	0.035
425.69	0.037
426.15	0.036
426.61	0.036
427.07	0.038
427.53	0.036
427.99	0.034
428.45	0.037
428.91	0.037
429.37	0.038
429.83	0.037
430.29	0.033
430.75	0.035
431.21	0.036
431.67	0.036
432.13	0.037
432.59	0.036
433.05	0.037
433.51	0.038
433.97	0.033
434.43	0.034
434.89	0.037
435.35	0.036
435.81	0.035
436.27	0.037
436.73	0.039
437.19	0.039
437.65	0.037
438.11	0.037
438.57	0.035
439.03	0.036
439.48	0.036
439.94	0.035
440.40	0.037
440.86	0.037
441.32	0.035
441.78	0.039
442.24	0.035
442.70	0.033
443.16	0.034
443.62	0.035
444.08	0.036
444.54	0.035
444.99	0.037
445.45	0.037
445.91	0.034
446.37	0.038
446.83	0.037
447.29	0.038
447.75	0.035
448.21	0.038
448.67	0.038
449.12	0.035
449.58	0.037
450.04	0.036
450.50	0.036
450.96	0.038
451.42	0.036
451.88	0.040
452.34	0.036
452.79	0.039
453.25	0.036
453.71	0.038
454.17	0.034
454.63	0.036
455.09	0.034
455.55	0.035
456.00	0.034
456.46	0.034
456.92	0.035
457.38	0.035
457.84	0.037
458.30	0.034
458.75	0.035
459.21	0.036
459.67	0.035
460.13	0.036
460.59	0.037
461.04	0.035
461.50	0.036
461.96	0.033
462.42	0.035
462.88	0.035
463.33	0.033
463.79	0.036
464.25	0.033
464.71	0.034
465.17	0.035
465.62	0.033
466.08	0.034
466.54	0.036
467.00	0.035
467.46	0.033
467.91	0.034
468.37	0.035
468.83	0.034
469.29	0.037
469.74	0.036
470.20	0.037
470.66	0.035
471.12	0.035
471.57	0.035
472.03	0.037
472.49	0.034
472.95	0.035
473.40	0.038
473.86	0.034
474.32	0.035
474.78	0.037
475.23	0.036
475.69	0.036
476.15	0.035
476.60	0.036
477.06	0.037
477.52	0.038
477.98	0.034
478.43	0.037
478.89	0.036
479.35	0.037
479.80	0.033
480.26	0.035
480.72	0.034
481.18	0.036
481.63	0.035
482.09	0.033
482.55	0.036
483.00	0.037
483.46	0.038
483.92	0.036
484.37	0.037
484.83	0.035
485.29	0.034
485.74	0.038
486.20	0.035
486.66	0.036
487.11	0.036
487.57	0.034
488.03	0.036
488.48	0.035
488.94	0.037
489.40	0.038
489.85	0.038
490.31	0.037
490.77	0.037
491.22	0.035
491.68	0.037
492.13	0.038
492.59	0.039
493.05	0.037
493.50	0.037
493.96	0.038
494.42	0.036
494.87	0.036
495.33	0.038
495.78	0.038
496.24	0.039
496.70	0.038
497.15	0.040
497.61	0.040
498.06	0.038
498.52	0.038
498.98	0.038
499.43	0.038
499.89	0.038
500.34	0.040
500.80	0.038
501.25	0.039
501.71	0.039
502.17	0.038
502.62	0.039
503.08	0.039
503.53	0.038
503.99	0.039
504.44	0.039
504.90	0.040
505.36	0.042
505.81	0.038
506.27	0.038
506.72	0.039
507.18	0.040
507.63	0.040
508.09	0.037
508.54	0.041
509.00	0.040
509.45	0.042
509.91	0.040
510.36	0.042
510.82	0.042
511.27	0.041
511.73	0.043
512.19	0.042
512.64	0.043
513.10	0.045
513.55	0.041
514.01	0.044
514.46	0.044
514.92	0.044
515.37	0.045
515.83	0.043
516.28	0.043
516.73	0.043
517.19	0.045
517.64	0.045
518.10	0.044
518.55	0.046
519.01	0.046
519.46	0.047
519.92	0.045
520.37	0.046
520.83	0.046
521.28	0.045
521.74	0.046
522.19	0.045
522.65	0.047
523.10	0.045
523.55	0.046
524.01	0.047
524.46	0.046
524.92	0.046
525.37	0.047
525.83	0.048
526.28	0.047
526.73	0.048
527.19	0.048
527.64	0.049
528.10	0.048
528.55	0.048
529.01	0.049
529.46	0.049
529.91	0.046
530.37	0.048
530.82	0.049
531.28	0.049
531.73	0.049
532.18	0.051
532.64	0.052
533.09	0.049
533.54	0.050
534.00	0.051
534.45	0.050
534.91	0.050
535.36	0.049
535.81	0.050
536.27	0.050
536.72	0.051
537.17	0.052
537.63	0.051
538.08	0.053
538.54	0.051
538.99	0.052
539.44	0.052
539.90	0.052
540.35	0.053
540.80	0.051
541.26	0.051
541.71	0.052
542.16	0.052
542.62	0.054
543.07	0.052
543.52	0.053
543.98	0.054
544.43	0.056
544.88	0.054
545.34	0.053
545.79	0.053
546.24	0.051
546.69	0.055
547.15	0.055
547.60	0.054
548.05	0.052
548.51	0.052
548.96	0.052
549.41	0.053
549.86	0.054
550.32	0.053
550.77	0.054
551.22	0.053
551.68	0.056
552.13	0.054
552.58	0.054
553.03	0.056
553.49	0.057
553.94	0.054
554.39	0.054
554.84	0.055
555.30	0.054
555.75	0.053
556.20	0.055
556.65	0.057
557.11	0.055
557.56	0.055
558.01	0.056
558.46	0.056
558.92	0.056
559.37	0.057
559.82	0.056
560.27	0.057
560.72	0.056
561.18	0.057
561.63	0.058
562.08	0.056
562.53	0.058
562.99	0.057
563.44	0.057
563.89	0.056
564.34	0.058
564.79	0.058
565.25	0.058
565.70	0.057
566.15	0.058
566.60	0.058
567.05	0.056
567.50	0.059
567.96	0.059
568.41	0.058
568.86	0.059
569.31	0.059
569.76	0.057
570.21	0.057
570.67	0.059
571.12	0.058
571.57	0.057
572.02	0.059
572.47	0.058
572.92	0.055
573.37	0.056
573.83	0.057
574.28	0.056
574.73	0.057
575.18	0.056
575.63	0.056
576.08	0.056
576.53	0.057
576.98	0.056
577.44	0.056
577.89	0.057
578.34	0.055
578.79	0.057
579.24	0.057
579.69	0.056
580.14	0.056
580.59	0.057
581.04	0.057
581.49	0.055
581.95	0.057
582.40	0.054
582.85	0.055
583.30	0.056
583.75	0.056
584.20	0.057
584.65	0.055
585.10	0.056
585.55	0.055
586.00	0.057
586.45	0.055
586.90	0.055
587.35	0.055
587.80	0.055
588.25	0.056
588.71	0.054
589.16	0.055
589.61	0.055
590.06	0.055
590.51	0.056
590.96	0.055
591.41	0.057
591.86	0.056
592.31	0.055
592.76	0.055
593.21	0.054
593.66	0.053
594.11	0.055
594.56	0.056
595.01	0.057
595.46	0.056
595.91	0.055
596.36	0.055
596.81	0.054
597.26	0.056
597.71	0.057
598.16	0.056
598.61	0.055
599.06	0.055
599.51	0.057
599.96	0.056
600.41	0.054
600.86	0.057
601.31	0.056
601.76	0.055
602.21	0.055
602.65	0.055
603.10	0.056
603.55	0.056
604.00	0.055
604.45	0.054
604.90	0.056
605.35	0.055
605.80	0.054
606.25	0.054
606.70	0.056
607.15	0.056
607.60	0.056
608.05	0.055
608.50	0.055
608.95	0.054
609.39	0.055
609.84	0.055
610.29	0.055
610.74	0.054
611.19	0.057
611.64	0.056
612.09	0.054
612.54	0.056
612.99	0.057
613.44	0.056
613.88	0.055
614.33	0.054
614.78	0.055
615.23	0.055
615.68	0.054
616.13	0.054
616.58	0.054
617.03	0.055
617.47	0.056
617.92	0.056
618.37	0.055
618.82	0.056
619.27	0.055
619.72	0.055
620.17	0.055
620.61	0.055
621.06	0.053
621.51	0.055
621.96	0.055
622.41	0.055
622.86	0.056
623.30	0.054
623.75	0.054
624.20	0.053
624.65	0.053
625.10	0.053
625.54	0.054
625.99	0.055
626.44	0.054
626.89	0.055
627.34	0.054
627.78	0.053
628.23	0.054
628.68	0.056
629.13	0.055
629.58	0.055
630.02	0.053
630.47	0.055
630.92	0.055
631.37	0.053
631.81	0.054
632.26	0.053
632.71	0.055
633.16	0.053
633.61	0.054
634.05	0.053
634.50	0.053
634.95	0.053
635.40	0.052
635.84	0.053
636.29	0.053
636.74	0.052
637.18	0.052
637.63	0.053
638.08	0.052
638.53	0.052
638.97	0.054
639.42	0.053
639.87	0.053
640.32	0.051
640.76	0.053
641.21	0.053
641.66	0.051
642.10	0.052
642.55	0.052
643.00	0.052
643.44	0.052
643.89	0.052
644.34	0.051
644.79	0.051
645.23	0.051
645.68	0.052
646.13	0.051
646.57	0.051
647.02	0.052
647.47	0.050
647.91	0.051
648.36	0.051
648.81	0.051
649.25	0.049
649.70	0.051
650.15	0.050
650.59	0.052
651.04	0.050
651.48	0.051
651.93	0.051
652.38	0.051
652.82	0.051
653.27	0.051
653.72	0.052
654.16	0.051
654.61	0.051
655.06	0.050
655.50	0.049
655.95	0.044
656.39	0.044
656.84	0.050
657.29	0.053
657.73	0.051
658.18	0.050
658.62	0.051
659.07	0.051
659.52	0.052
659.96	0.051
660.41	0.051
660.85	0.050
661.30	0.050
661.74	0.050
662.19	0.050
662.64	0.050
663.08	0.049
663.53	0.051
663.97	0.051
664.42	0.051
664.86	0.051
665.31	0.049
665.75	0.048
666.20	0.049
666.65	0.048
667.09	0.047
667.54	0.049
667.98	0.050
668.43	0.050
668.87	0.048
669.32	0.050
669.76	0.048
670.21	0.048
670.65	0.049
671.10	0.049
671.54	0.047
671.99	0.048
672.43	0.046
672.88	0.050
673.32	0.049
673.77	0.047
674.21	0.048
674.66	0.046
675.10	0.046
675.55	0.046
675.99	0.045
676.44	0.045
676.88	0.046
677.33	0.045
677.77	0.045
678.22	0.044
678.66	0.046
679.11	0.043
679.55	0.043
679.99	0.041
680.44	0.042
680.88	0.040
681.33	0.044
681.77	0.044
682.22	0.044
682.66	0.042
683.11	0.041
683.55	0.040
683.99	0.041
684.44	0.040
684.88	0.040
685.33	0.039
685.77	0.040
686.21	0.040
686.66	0.041
687.10	0.038
687.55	0.037
687.99	0.036
688.44	0.038
688.88	0.039
689.32	0.036
689.77	0.037
690.21	0.036
690.65	0.035
691.10	0.036
691.54	0.034
691.99	0.036
692.43	0.035
692.87	0.033
693.32	0.033
693.76	0.034
694.20	0.032
694.65	0.034
695.09	0.031
695.53	0.031
695.98	0.032
696.42	0.029
696.86	0.032
697.31	0.031
697.75	0.030
698.19	0.031
698.64	0.030
699.08	0.029
699.52	0.030
699.97	0.029
700.41	0.029
700.85	0.028
701.30	0.028
701.74	0.027
702.18	0.027
702.63	0.028
703.07	0.026
703.51	0.026
703.96	0.026
704.40	0.026
704.84	0.024
705.28	0.026
705.73	0.024
706.17	0.025
706.61	0.022
707.06	0.023
707.50	0.024
707.94	0.024
708.38	0.023
708.83	0.023
709.27	0.025
709.71	0.023
710.15	0.021
710.60	0.024
711.04	0.022
711.48	0.021
711.92	0.023
712.37	0.020
712.81	0.018
713.25	0.017
713.69	0.018
714.13	0.019
714.58	0.019
715.02	0.019
715.46	0.021
715.90	0.020
716.35	0.019
716.79	0.022
717.23	0.021
717.67	0.019
718.11	0.016
718.56	0.019
719.00	0.021
719.44	0.018
719.88	0.017
720.32	0.018
720.76	0.018
721.21	0.018
721.65	0.017
722.09	0.018
722.53	0.018
722.97	0.018
723.41	0.015
723.86	0.017
724.30	0.017
724.74	0.017
725.18	0.018
725.62	0.016
726.06	0.018
726.50	0.019
726.95	0.016
727.39	0.019
727.83	0.016
728.27	0.016
728.71	0.017
729.15	0.020
729.59	0.017
730.03	0.018
730.48	0.019
730.92	0.016
731.36	0.017
731.80	0.017
732.24	0.017
732.68	0.016
733.12	0.018
733.56	0.016
734.00	0.018
734.44	0.017
734.89	0.018
735.33	0.018
735.77	0.018
736.21	0.017
736.65	0.020
737.09	0.020
737.53	0.019
737.97	0.017
738.41	0.016
738.85	0.016
739.29	0.017
739.73	0.016
740.17	0.017
740.61	0.017
741.05	0.018
741.49	0.016
741.93	0.019
742.37	0.018
742.81	0.018
743.26	0.018
743.70	0.017
744.14	0.018
744.58	0.018
745.02	0.019
745.46	0.018
745.90	0.019
746.34	0.018
746.78	0.019
747.22	0.015
747.66	0.018
748.10	0.016
748.54	0.018
748.98	0.016
749.42	0.019
749.86	0.019
750.29	0.015
750.73	0.020
751.17	0.015
751.61	0.016
752.05	0.019
752.49	0.018
752.93	0.019
753.37	0.017
753.81	0.018
754.25	0.015
754.69	0.017
755.13	0.016
755.57	0.015
756.01	0.017
756.45	0.019
756.89	0.016
757.33	0.017
757.77	0.017
758.21	0.015
758.64	0.017
759.08	0.018
759.52	0.016
759.96	0.016
760.40	0.017
760.84	0.017
761.28	0.016
761.72	0.016
762.16	0.016
762.60	0.015
763.03	0.013
763.47	0.017
763.91	0.014
764.35	0.014
764.79	0.015
765.23	0.014
765.67	0.015
766.11	0.017
766.54	0.017
766.98	0.016
767.42	0.016
767.86	0.014
768.30	0.016
768.74	0.016
769.17	0.016
769.61	0.015
770.05	0.013
770.49	0.015
770.93	0.014
771.37	0.015
771.80	0.015
772.24	0.014
772.68	0.017
773.12	0.015
773.56	0.015
774.00	0.012
774.43	0.015
774.87	0.015
775.31	0.016
775.75	0.015
776.19	0.016
776.62	0.013
777.06	0.014
777.50	0.015
777.94	0.014
778.37	0.016
778.81	0.016
779.25	0.016
779.69	0.012
780.13	0.015
780.56	0.013
781.00	0.013
781.44	0.015
781.88	0.015
782.31	0.016
782.75	0.016
783.19	0.012
783.63	0.018
784.06	0.016
784.50	0.016
784.94	0.013
785.37	0.015
785.81	0.015
786.25	0.013
786.69	0.014
787.12	0.014
787.56	0.012
788.00	0.011
788.43	0.013
788.87	0.017
789.31	0.015
789.75	0.014
790.18	0.017
790.62	0.014
791.06	0.012
791.49	0.013
791.93	0.015
792.37	0.012
792.80	0.014
793.24	0.014
793.68	0.010
794.11	0.014
794.55	0.014
794.99	0.014
795.42	0.015
795.86	0.012
796.30	0.012
796.73	0.012
797.17	0.013
797.61	0.017
798.04	0.012
798.48	0.012
798.91	0.013
799.35	0.014
799.79	0.012
800.22	0.016
800.66	0.015
801.10	0.017
801.53	0.011
801.97	0.014
802.40	0.013
802.84	0.014
803.28	0.014
803.71	0.013
804.15	0.014
804.58	0.015
805.02	0.014
805.46	0.013
805.89	0.013
806.33	0.011
806.76	0.016
807.20	0.016
807.63	0.009
808.07	0.014
808.51	0.011
808.94	0.009
809.38	0.011
809.81	0.016
810.25	0.015
810.68	0.018
811.12	0.015
811.55	0.014
811.99	0.013
812.42	0.012
812.86	0.013
813.29	0.016
813.73	0.014
814.17	0.011
814.60	0.014
815.04	0.009
815.47	0.016
815.91	0.012
816.34	0.013
816.78	0.016
817.21	0.015
817.65	0.014
818.08	0.012
818.52	0.015
818.95	0.017
819.39	0.013
819.82	0.015
820.25	0.013
820.69	0.009
821.12	0.013
821.56	0.015
821.99	0.008
822.43	0.017
822.86	0.014
823.30	0.015
823.73	0.011
824.17	0.015
824.60	0.014
825.04	0.015
825.47	0.014
825.90	0.017
826.34	0.016
826.77	0.016
827.21	0.014
827.64	0.015
828.08	0.013
828.51	0.012
828.94	0.019
829.38	0.019
829.81	0.016
830.25	0.016
830.68	0.018
831.11	0.020
831.55	0.019
831.98	0.019
832.42	0.022
832.85	0.019
833.28	0.020
833.72	0.020
834.15	0.019
834.58	0.020
835.02	0.022
835.45	0.019
835.88	0.023
836.32	0.020
836.75	0.025
837.19	0.021
837.62	0.018
838.05	0.019
838.49	0.018
838.92	0.025
839.35	0.020
839.79	0.020
840.22	0.021
840.65	0.022
841.09	0.020
841.52	0.028
841.95	0.025
842.39	0.023
842.82	0.024
843.25	0.016
843.68	0.021
844.12	0.022
844.55	0.022
844.98	0.024
845.42	0.019
845.85	0.014
846.28	0.021
846.71	0.020
847.15	0.020
847.58	0.024
848.01	0.028
848.45	0.026
848.88	0.026
849.31	0.022
849.74	0.023
850.18	0.021
850.61	0.021
851.04	0.024
851.47	0.023
851.91	0.025
852.34	0.023
852.77	0.023
853.20	0.026
853.64	0.023
854.07	0.024
854.50	0.029
854.93	0.026
855.36	0.026
855.80	0.022
856.23	0.028
856.66	0.032
857.09	0.025
857.52	0.027
857.96	0.023
858.39	0.024
858.82	0.027
859.25	0.029
859.68	0.024
860.12	0.030
860.55	0.028
860.98	0.021
861.41	0.022
861.84	0.029
862.27	0.024
862.71	0.024
863.14	0.030
863.57	0.025
864.00	0.029
864.43	0.031
864.86	0.029
865.30	0.023
865.73	0.020
866.16	0.028
866.59	0.025
867.02	0.025
867.45	0.030
867.88	0.029
868.31	0.026
868.75	0.034
869.18	0.031
869.61	0.027
870.04	0.022
870.47	0.022
870.90	0.029
871.33	0.024
871.76	0.032
872.19	0.023
872.62	0.032
873.06	0.029
873.49	0.033
873.92	0.028
874.35	0.028
874.78	0.028
875.21	0.028
875.64	0.033
876.07	0.036
876.50	0.031
876.93	0.032
877.36	0.031
877.79	0.028
878.22	0.028
878.65	0.032
879.08	0.032
879.51	0.029
879.94	0.033
880.37	0.031
880.80	0.034
881.23	0.027
881.67	0.033
882.10	0.036
882.53	0.037
882.96	0.036
883.39	0.034
883.82	0.038
884.25	0.040
884.68	0.038
885.11	0.035
885.54	0.036
885.97	0.033
886.39	0.037
886.82	0.035
887.25	0.036
887.68	0.042
888.11	0.037
888.54	0.037
888.97	0.043
889.40	0.041
889.83	0.040
890.26	0.041
890.69	0.042
891.12	0.039
891.55	0.040
891.98	0.035
892.41	0.037
892.84	0.039
893.27	0.037
893.70	0.039
894.13	0.040
894.56	0.036
894.98	0.043
895.41	0.035
895.84	0.035
896.27	0.038
896.70	0.040
897.13	0.037
897.56	0.041
897.99	0.037
898.42	0.042
898.85	0.044
899.27	0.044
899.70	0.044
900.13	0.042
900.56	0.040
900.99	0.042
901.42	0.044
901.85	0.045
902.28	0.043
902.70	0.042
903.13	0.036
903.56	0.040
903.99	0.044
904.42	0.044
904.85	0.041
905.27	0.040
905.70	0.039
906.13	0.040
906.56	0.037
906.99	0.039
907.42	0.044
907.84	0.040
908.27	0.036
908.70	0.041
909.13	0.038
909.56	0.036
909.98	0.044
910.41	0.043
910.84	0.039
911.27	0.043
911.70	0.041
912.12	0.043
912.55	0.043
912.98	0.044
913.41	0.043
913.84	0.040
914.26	0.041
914.69	0.044
915.12	0.037
915.55	0.041
915.97	0.040
916.40	0.044
916.83	0.043
917.26	0.047
917.68	0.045
918.11	0.042
918.54	0.044
918.97	0.043
919.39	0.040
919.82	0.044
920.25	0.043
920.67	0.042
921.10	0.047
921.53	0.043
921.96	0.043
922.38	0.044
922.81	0.046
923.24	0.050
923.66	0.043
924.09	0.048
924.52	0.048
924.94	0.045
925.37	0.050
925.80	0.050
926.22	0.051
926.65	0.053
927.08	0.050
927.50	0.055
927.93	0.052
928.36	0.056
928.78	0.057
929.21	0.054
929.64	0.056
930.06	0.059
930.49	0.062
930.92	0.063
931.34	0.066
931.77	0.059
932.20	0.066
932.62	0.065
933.05	0.067
933.47	0.068
933.90	0.069
934.33	0.072
934.75	0.072
935.18	0.074
935.61	0.076
936.03	0.074
936.46	0.079
936.88	0.079
937.31	0.083
937.73	0.078
938.16	0.080
938.59	0.086
939.01	0.085
939.44	0.087
939.86	0.092
940.29	0.088
940.71	0.089
941.14	0.092
941.57	0.097
941.99	0.101
942.42	0.094
942.84	0.098
943.27	0.099
943.69	0.099
944.12	0.112
944.54	0.100
944.97	0.107
945.39	0.118
945.82	0.111
946.24	0.108
946.67	0.117
947.09	0.119
947.52	0.116
947.94	0.116
948.37	0.122
948.79	0.120
949.22	0.124
949.64	0.124
950.07	0.139
950.49	0.125
950.92	0.140
951.34	0.137
951.77	0.140
952.19	0.132
952.62	0.146
953.04	0.150
953.47	0.155
953.89	0.155
954.32	0.164
954.74	0.168
955.17	0.162
955.59	0.169
956.01	0.171
956.44	0.173
956.86	0.178
957.29	0.184
957.71	0.177
958.14	0.181
958.56	0.181
958.98	0.186
959.41	0.184
959.83	0.188
960.26	0.194
960.68	0.192
961.10	0.185
961.53	0.194
961.95	0.196
962.38	0.201
962.80	0.199
963.22	0.200
963.65	0.199
964.07	0.199
964.50	0.203
964.92	0.202
965.34	0.201
965.77	0.208
966.19	0.207
966.61	0.204
967.04	0.204
967.46	0.213
967.88	0.211
968.31	0.211
968.73	0.209
969.15	0.215
969.58	0.207
970.00	0.203
970.42	0.211
970.85	0.212
971.27	0.212
971.69	0.217
972.12	0.217
972.54	0.212
972.96	0.208
973.39	0.212
973.81	0.209
974.23	0.214
974.65	0.212
975.08	0.213
975.50	0.212
975.92	0.215
976.35	0.214
976.77	0.219
977.19	0.214
977.61	0.221
978.04	0.215
978.46	0.217
978.88	0.210
979.30	0.216
979.73	0.219
980.15	0.213
980.57	0.217
980.99	0.219
981.42	0.214
981.84	0.217
982.26	0.217
982.68	0.212
983.11	0.208
983.53	0.217
983.95	0.214
984.37	0.214
984.79	0.216
985.22	0.206
985.64	0.215
986.06	0.210
986.48	0.216
986.90	0.213
987.33	0.213
987.75	0.214
988.17	0.209
988.59	0.212
989.01	0.215
989.43	0.209
989.86	0.206
990.28	0.206
990.70	0.209
991.12	0.204
991.54	0.211
991.96	0.210
992.39	0.200
992.81	0.204
993.23	0.209
993.65	0.204
994.07	0.197
994.49	0.199
994.91	0.196
995.34	0.200
995.76	0.196
996.18	0.198
996.60	0.196
997.02	0.196
997.44	0.202
997.86	0.191
998.28	0.197
998.70	0.202
999.12	0.192
999.55	0.198
999.97	0.196
1000.39	0.188
1000.81	0.194
1001.23	0.189
1001.65	0.187
1002.07	0.187
1002.49	0.189
1002.91	0.188
1003.33	0.186
1003.75	0.189
1004.17	0.186
1004.59	0.184
1005.01	0.188
1005.43	0.186
1005.85	0.188
1006.28	0.182
1006.70	0.182
1007.12	0.178
1007.54	0.170
1007.96	0.176
1008.38	0.175
1008.80	0.165
1009.22	0.170
1009.64	0.167
1010.06	0.175
1010.48	0.180
1010.90	0.168
1011.32	0.180
1011.74	0.173
1012.16	0.175
1012.58	0.173
1013.00	0.177
1013.42	0.167
1013.84	0.162
1014.26	0.155
1014.67	0.157
1015.09	0.163
1015.51	0.170
1015.93	0.149
1016.35	0.148
1016.77	0.166
1017.19	0.150
1017.61	0.154
1018.03	0.160
1018.45	0.150
1018.87	0.144
1019.29	0.146
1019.71	0.155
1020.13	0.150
1020.55	0.168
1020.97	0.142
1021.38	0.149
1021.80	0.148
1022.22	0.151
1022.64	0.139
1023.06	0.147
1023.48	0.140
1023.90	0.141
1024.32	0.143
1024.74	0.153
1025.15	0.143
1025.57	0.140
1025.99	0.142
1026.41	0.143
1026.83	0.152
1027.25	0.133
1027.67	0.148
1028.08	0.130
1028.50	0.140
1028.92	0.131
1029.34	0.132
1029.76	0.125
1030.18	0.144
1030.60	0.140
1031.01	0.135
1031.43	0.133
1031.85	0.142
1032.27	0.135
1032.69	0.107
1033.10	0.127
1033.52	0.135
1033.94	0.141
1034.36	0.130
1034.78	0.127
1035.19	0.129
1035.61	0.125
1036.03	0.134
1036.45	0.117
1036.87	0.143
1037.28	0.115
1037.70	0.118
1038.12	0.114
1038.54	0.143
1038.95	0.125
1039.37	0.114
1039.79	0.123
1040.21	0.149
1040.62	0.122
1041.04	0.136
1041.46	0.131
1041.88	0.124
1042.29	0.124
1042.71	0.125
1043.13	0.135
1043.55	0.132
1043.96	0.145
1044.38	0.119
1044.80	0.118
1045.21	0.118
1045.63	0.130
1046.05	0.140
1046.47	0.119
1046.88	0.125
1047.30	0.124
1047.72	0.129
1048.13	0.106
1048.55	0.118
1048.97	0.107
1049.38	0.108
1049.80	0.104
1050.22	0.137
1050.63	0.122
1051.05	0.141
1051.47	0.120
1051.88	0.111
1052.30	0.120
1052.72	0.117
1053.13	0.108
1053.55	0.112
1053.97	0.113
1054.38	0.136
1054.80	0.157
1055.21	0.116
1055.63	0.140
1056.05	0.134
1056.46	0.151
1056.88	0.118
1057.29	0.126
1057.71	0.099
1058.13	0.142
1058.54	0.157
1058.96	0.123
1059.37	0.161
1059.79	0.161
1060.21	0.146
1060.62	0.142
1061.04	0.193
1061.45	0.165
1061.87	0.133
1062.28	0.178
1062.70	0.168
1063.12	0.178
1063.53	0.228
1063.95	0.178
1064.36	0.227
1064.78	0.207
1065.19	0.146
1065.61	0.181
1066.02	0.181
1066.44	0.175
1066.85	0.180
1067.27	0.231
1067.68	0.270
1068.10	0.208
1068.51	0.164
1068.93	0.168
1069.35	0.264
1069.76	0.253
1070.17	0.315
1070.59	0.239
1071.00	0.169
1071.42	0.126
1071.83	0.259
1072.25	0.244
1072.66	0.255
1073.08	0.589
1073.49	0.360
1073.91	0.379
1074.32	0.274
1074.74	0.258
1075.15	0.257
1075.57	0.415
1075.98	0.588
1076.40	0.536
1076.81	0.423
1077.22	0.342
1077.64	0.344
1078.05	0.469
1078.47	0.490
1078.88	0.335
1079.30	0.279
1079.71	1.140
1080.12	0.870
1080.54	0.418
1080.95	0.643
1081.37	-0.000
1081.78	0.667
1082.19	0.797
1082.61	1.146
1083.02	-0.000
1083.44	0.436
1083.85	0.827
1084.26	1.022
1084.68	0.863
1085.09	0.674
1085.50	0.405
1085.92	0.583
1086.33	-0.000
1086.74	-0.000
1087.16	0.743
1087.57	-0.000
1087.98	-0.000
1088.40	-0.000
1088.81	0.316
1089.22	-0.000
1089.64	0.783
1090.05	0.944
1090.46	-0.000
1090.88	-0.000
1091.29	-0.000
1091.70	-0.000
1092.12	-0.000
1092.53	-0.000
1092.94	-0.000
1093.36	-0.000
1093.77	1.306
1094.18	0.697
1094.59	0.390
1095.01	0.468
1095.42	-0.000
1095.83	1.000
1096.25	0.651
1096.66	-0.000
1097.07	1.378
1097.48	-0.000
1097.90	1.126
1098.31	-0.000
1098.72	-0.000
1099.13	-0.000
>>>>>End Processed Spectral Data<<<<<
