SpectraSuite Data File
++++++++++++++++++++++++++++++++++++
Date: Tue Mar 29 11:51:24 CEST 2016
User: IPCE
Dark Spectrum Present: Yes
Reference Spectrum Present: Yes
Number of Sampled Component Spectra: 1
Spectrometers: HR+C0708
Integration Time (usec): 1000 (HR+C0708)
Spectra Averaged: 10 (HR+C0708)
Boxcar Smoothing: 0 (HR+C0708)
Correct for Electrical Dark: No (HR+C0708)
Strobe/Lamp Enabled: No (HR+C0708)
Correct for Detector Non-linearity: No (HR+C0708)
Correct for Stray Light: No (HR+C0708)
Number of Pixels in Processed Spectrum: 2048
>>>>>Begin Processed Spectral Data<<<<<
188.76	0.927
189.23	-0.000
189.70	-0.000
190.17	-0.000
190.64	-0.000
191.12	-0.000
191.59	-0.000
192.06	-0.000
192.53	-0.000
193.01	-0.000
193.48	-0.000
193.95	-0.000
194.42	-0.000
194.90	-0.000
195.37	-0.000
195.84	1.126
196.31	-0.000
196.78	-0.000
197.26	-0.000
197.73	-0.000
198.20	-0.000
198.67	-0.000
199.14	-0.000
199.62	-0.000
200.09	-0.000
200.56	0.759
201.03	0.487
201.50	0.649
201.97	0.787
202.45	0.549
202.92	0.647
203.39	0.502
203.86	0.685
204.33	0.529
204.80	0.629
205.28	0.645
205.75	0.669
206.22	0.573
206.69	0.500
207.16	0.761
207.63	0.684
208.11	0.799
208.58	0.687
209.05	0.571
209.52	0.740
209.99	0.747
210.46	0.859
210.93	0.626
211.41	0.482
211.88	0.560
212.35	0.613
212.82	0.571
213.29	0.605
213.76	0.652
214.23	0.667
214.70	0.697
215.18	0.830
215.65	0.919
216.12	0.841
216.59	1.023
217.06	0.767
217.53	0.735
218.00	0.973
218.47	0.915
218.94	0.863
219.41	0.795
219.89	0.856
220.36	0.877
220.83	1.127
221.30	1.109
221.77	1.107
222.24	1.064
222.71	1.249
223.18	1.071
223.65	1.109
224.12	1.194
224.59	1.197
225.06	1.513
225.54	1.340
226.01	1.280
226.48	1.566
226.95	1.429
227.42	1.704
227.89	1.616
228.36	1.369
228.83	1.611
229.30	1.567
229.77	1.690
230.24	1.768
230.71	1.974
231.18	1.947
231.65	1.735
232.12	1.908
232.59	1.745
233.06	2.030
233.53	2.001
234.00	2.113
234.47	2.293
234.94	2.189
235.41	2.294
235.88	2.041
236.35	2.228
236.82	2.713
237.29	2.326
237.76	2.396
238.23	2.352
238.70	2.332
239.17	2.247
239.64	2.401
240.11	2.281
240.58	2.319
241.05	2.323
241.52	2.264
241.99	2.506
242.46	2.390
242.93	2.520
243.40	2.604
243.87	2.297
244.34	2.472
244.81	2.277
245.28	2.438
245.75	2.368
246.22	2.408
246.69	2.570
247.16	2.536
247.63	2.617
248.10	2.456
248.57	2.443
249.04	2.550
249.51	2.357
249.98	2.391
250.45	2.443
250.92	2.441
251.39	2.332
251.85	2.353
252.32	2.261
252.79	2.213
253.26	2.163
253.73	2.127
254.20	2.087
254.67	1.975
255.14	1.910
255.61	1.837
256.08	1.730
256.55	1.650
257.02	1.593
257.49	1.542
257.95	1.459
258.42	1.423
258.89	1.373
259.36	1.324
259.83	1.283
260.30	1.235
260.77	1.203
261.24	1.172
261.71	1.128
262.17	1.098
262.64	1.075
263.11	1.045
263.58	1.022
264.05	0.997
264.52	0.964
264.99	0.941
265.46	0.917
265.92	0.892
266.39	0.871
266.86	0.850
267.33	0.831
267.80	0.810
268.27	0.789
268.74	0.772
269.20	0.749
269.67	0.735
270.14	0.717
270.61	0.703
271.08	0.689
271.55	0.671
272.01	0.655
272.48	0.644
272.95	0.627
273.42	0.618
273.89	0.605
274.36	0.591
274.82	0.580
275.29	0.564
275.76	0.558
276.23	0.544
276.70	0.539
277.16	0.526
277.63	0.513
278.10	0.507
278.57	0.498
279.04	0.487
279.50	0.479
279.97	0.472
280.44	0.466
280.91	0.457
281.38	0.447
281.84	0.441
282.31	0.436
282.78	0.428
283.25	0.422
283.72	0.415
284.18	0.412
284.65	0.402
285.12	0.397
285.59	0.391
286.05	0.386
286.52	0.380
286.99	0.378
287.46	0.369
287.92	0.363
288.39	0.359
288.86	0.356
289.33	0.346
289.79	0.345
290.26	0.343
290.73	0.334
291.20	0.330
291.66	0.325
292.13	0.323
292.60	0.319
293.07	0.313
293.53	0.311
294.00	0.306
294.47	0.303
294.93	0.297
295.40	0.292
295.87	0.292
296.34	0.286
296.80	0.283
297.27	0.280
297.74	0.281
298.20	0.270
298.67	0.269
299.14	0.267
299.60	0.266
300.07	0.261
300.54	0.257
301.01	0.253
301.47	0.252
301.94	0.248
302.41	0.245
302.87	0.243
303.34	0.240
303.81	0.238
304.27	0.235
304.74	0.236
305.21	0.230
305.67	0.227
306.14	0.228
306.61	0.222
307.07	0.223
307.54	0.220
308.01	0.219
308.47	0.216
308.94	0.215
309.40	0.215
309.87	0.211
310.34	0.210
310.80	0.207
311.27	0.208
311.74	0.206
312.20	0.205
312.67	0.202
313.13	0.199
313.60	0.198
314.07	0.202
314.53	0.200
315.00	0.199
315.47	0.196
315.93	0.195
316.40	0.194
316.86	0.194
317.33	0.193
317.80	0.193
318.26	0.193
318.73	0.192
319.19	0.188
319.66	0.189
320.13	0.190
320.59	0.189
321.06	0.189
321.52	0.188
321.99	0.188
322.45	0.191
322.92	0.186
323.39	0.188
323.85	0.187
324.32	0.185
324.78	0.186
325.25	0.184
325.71	0.186
326.18	0.185
326.64	0.186
327.11	0.186
327.58	0.185
328.04	0.182
328.51	0.182
328.97	0.183
329.44	0.183
329.90	0.183
330.37	0.183
330.83	0.182
331.30	0.184
331.76	0.184
332.23	0.183
332.69	0.184
333.16	0.182
333.62	0.182
334.09	0.184
334.56	0.183
335.02	0.181
335.49	0.181
335.95	0.182
336.42	0.180
336.88	0.182
337.35	0.182
337.81	0.181
338.28	0.182
338.74	0.180
339.20	0.177
339.67	0.180
340.13	0.179
340.60	0.179
341.06	0.181
341.53	0.177
341.99	0.180
342.46	0.179
342.92	0.177
343.39	0.179
343.85	0.178
344.32	0.178
344.78	0.174
345.25	0.175
345.71	0.175
346.17	0.173
346.64	0.174
347.10	0.175
347.57	0.174
348.03	0.173
348.50	0.169
348.96	0.172
349.43	0.169
349.89	0.170
350.35	0.170
350.82	0.173
351.28	0.173
351.75	0.177
352.21	0.165
352.67	0.169
353.14	0.169
353.60	0.171
354.07	0.167
354.53	0.168
355.00	0.164
355.46	0.166
355.92	0.164
356.39	0.165
356.85	0.167
357.31	0.164
357.78	0.162
358.24	0.161
358.71	0.160
359.17	0.158
359.63	0.153
360.10	0.155
360.56	0.153
361.03	0.155
361.49	0.154
361.95	0.152
362.42	0.152
362.88	0.148
363.34	0.148
363.81	0.150
364.27	0.150
364.73	0.146
365.20	0.149
365.66	0.146
366.12	0.145
366.59	0.144
367.05	0.142
367.51	0.143
367.98	0.139
368.44	0.141
368.90	0.141
369.37	0.141
369.83	0.137
370.29	0.136
370.76	0.135
371.22	0.132
371.68	0.137
372.15	0.133
372.61	0.131
373.07	0.131
373.54	0.128
374.00	0.130
374.46	0.131
374.92	0.129
375.39	0.131
375.85	0.128
376.31	0.127
376.78	0.123
377.24	0.126
377.70	0.123
378.16	0.126
378.63	0.123
379.09	0.124
379.55	0.120
380.01	0.121
380.48	0.120
380.94	0.118
381.40	0.119
381.87	0.118
382.33	0.119
382.79	0.115
383.25	0.115
383.72	0.114
384.18	0.115
384.64	0.114
385.10	0.110
385.56	0.110
386.03	0.111
386.49	0.113
386.95	0.109
387.41	0.111
387.88	0.109
388.34	0.110
388.80	0.108
389.26	0.106
389.72	0.110
390.19	0.104
390.65	0.105
391.11	0.108
391.57	0.104
392.04	0.104
392.50	0.105
392.96	0.103
393.42	0.102
393.88	0.104
394.34	0.102
394.81	0.102
395.27	0.103
395.73	0.104
396.19	0.099
396.65	0.099
397.12	0.099
397.58	0.100
398.04	0.101
398.50	0.101
398.96	0.096
399.42	0.098
399.89	0.101
400.35	0.099
400.81	0.099
401.27	0.099
401.73	0.098
402.19	0.096
402.65	0.097
403.12	0.099
403.58	0.100
404.04	0.100
404.50	0.095
404.96	0.096
405.42	0.097
405.88	0.098
406.34	0.097
406.81	0.098
407.27	0.095
407.73	0.093
408.19	0.098
408.65	0.095
409.11	0.093
409.57	0.098
410.03	0.097
410.49	0.093
410.96	0.095
411.42	0.097
411.88	0.096
412.34	0.095
412.80	0.096
413.26	0.093
413.72	0.098
414.18	0.095
414.64	0.095
415.10	0.095
415.56	0.094
416.02	0.093
416.48	0.093
416.95	0.094
417.41	0.093
417.87	0.093
418.33	0.094
418.79	0.093
419.25	0.096
419.71	0.094
420.17	0.093
420.63	0.091
421.09	0.092
421.55	0.093
422.01	0.092
422.47	0.095
422.93	0.094
423.39	0.094
423.85	0.095
424.31	0.093
424.77	0.092
425.23	0.092
425.69	0.095
426.15	0.095
426.61	0.094
427.07	0.096
427.53	0.092
427.99	0.093
428.45	0.093
428.91	0.094
429.37	0.097
429.83	0.093
430.29	0.093
430.75	0.094
431.21	0.096
431.67	0.095
432.13	0.096
432.59	0.094
433.05	0.095
433.51	0.095
433.97	0.094
434.43	0.092
434.89	0.097
435.35	0.094
435.81	0.095
436.27	0.094
436.73	0.095
437.19	0.095
437.65	0.094
438.11	0.094
438.57	0.096
439.03	0.097
439.48	0.094
439.94	0.097
440.40	0.096
440.86	0.092
441.32	0.092
441.78	0.097
442.24	0.096
442.70	0.092
443.16	0.091
443.62	0.095
444.08	0.095
444.54	0.094
444.99	0.094
445.45	0.096
445.91	0.095
446.37	0.096
446.83	0.093
447.29	0.095
447.75	0.096
448.21	0.095
448.67	0.093
449.12	0.094
449.58	0.095
450.04	0.095
450.50	0.097
450.96	0.097
451.42	0.095
451.88	0.097
452.34	0.093
452.79	0.093
453.25	0.092
453.71	0.094
454.17	0.093
454.63	0.093
455.09	0.092
455.55	0.095
456.00	0.096
456.46	0.094
456.92	0.094
457.38	0.093
457.84	0.096
458.30	0.096
458.75	0.092
459.21	0.094
459.67	0.094
460.13	0.094
460.59	0.097
461.04	0.095
461.50	0.096
461.96	0.094
462.42	0.094
462.88	0.096
463.33	0.092
463.79	0.094
464.25	0.092
464.71	0.095
465.17	0.092
465.62	0.094
466.08	0.094
466.54	0.094
467.00	0.094
467.46	0.092
467.91	0.094
468.37	0.095
468.83	0.096
469.29	0.095
469.74	0.097
470.20	0.098
470.66	0.096
471.12	0.097
471.57	0.098
472.03	0.099
472.49	0.097
472.95	0.096
473.40	0.097
473.86	0.097
474.32	0.096
474.78	0.099
475.23	0.099
475.69	0.100
476.15	0.100
476.60	0.101
477.06	0.098
477.52	0.101
477.98	0.100
478.43	0.101
478.89	0.101
479.35	0.103
479.80	0.101
480.26	0.099
480.72	0.099
481.18	0.105
481.63	0.103
482.09	0.100
482.55	0.102
483.00	0.103
483.46	0.105
483.92	0.103
484.37	0.106
484.83	0.105
485.29	0.105
485.74	0.105
486.20	0.105
486.66	0.104
487.11	0.104
487.57	0.105
488.03	0.106
488.48	0.106
488.94	0.108
489.40	0.107
489.85	0.108
490.31	0.108
490.77	0.111
491.22	0.110
491.68	0.107
492.13	0.110
492.59	0.110
493.05	0.110
493.50	0.110
493.96	0.112
494.42	0.112
494.87	0.111
495.33	0.113
495.78	0.115
496.24	0.114
496.70	0.114
497.15	0.116
497.61	0.116
498.06	0.114
498.52	0.118
498.98	0.115
499.43	0.116
499.89	0.113
500.34	0.119
500.80	0.119
501.25	0.119
501.71	0.118
502.17	0.118
502.62	0.119
503.08	0.119
503.53	0.119
503.99	0.121
504.44	0.119
504.90	0.122
505.36	0.120
505.81	0.119
506.27	0.122
506.72	0.122
507.18	0.120
507.63	0.123
508.09	0.123
508.54	0.125
509.00	0.124
509.45	0.128
509.91	0.125
510.36	0.127
510.82	0.128
511.27	0.128
511.73	0.128
512.19	0.130
512.64	0.130
513.10	0.130
513.55	0.129
514.01	0.130
514.46	0.129
514.92	0.133
515.37	0.131
515.83	0.131
516.28	0.131
516.73	0.130
517.19	0.135
517.64	0.134
518.10	0.132
518.55	0.134
519.01	0.133
519.46	0.135
519.92	0.136
520.37	0.134
520.83	0.137
521.28	0.136
521.74	0.136
522.19	0.136
522.65	0.137
523.10	0.136
523.55	0.138
524.01	0.138
524.46	0.142
524.92	0.140
525.37	0.142
525.83	0.140
526.28	0.140
526.73	0.142
527.19	0.141
527.64	0.142
528.10	0.145
528.55	0.145
529.01	0.147
529.46	0.146
529.91	0.144
530.37	0.144
530.82	0.145
531.28	0.145
531.73	0.147
532.18	0.145
532.64	0.147
533.09	0.148
533.54	0.148
534.00	0.146
534.45	0.148
534.91	0.149
535.36	0.150
535.81	0.150
536.27	0.150
536.72	0.149
537.17	0.149
537.63	0.151
538.08	0.152
538.54	0.151
538.99	0.152
539.44	0.152
539.90	0.152
540.35	0.154
540.80	0.154
541.26	0.152
541.71	0.152
542.16	0.155
542.62	0.155
543.07	0.153
543.52	0.155
543.98	0.158
544.43	0.157
544.88	0.154
545.34	0.156
545.79	0.156
546.24	0.157
546.69	0.157
547.15	0.159
547.60	0.157
548.05	0.156
548.51	0.157
548.96	0.158
549.41	0.155
549.86	0.159
550.32	0.157
550.77	0.156
551.22	0.157
551.68	0.159
552.13	0.157
552.58	0.156
553.03	0.161
553.49	0.161
553.94	0.159
554.39	0.161
554.84	0.161
555.30	0.163
555.75	0.160
556.20	0.162
556.65	0.162
557.11	0.160
557.56	0.162
558.01	0.162
558.46	0.162
558.92	0.163
559.37	0.165
559.82	0.164
560.27	0.163
560.72	0.164
561.18	0.162
561.63	0.164
562.08	0.164
562.53	0.164
562.99	0.165
563.44	0.164
563.89	0.166
564.34	0.166
564.79	0.167
565.25	0.166
565.70	0.167
566.15	0.167
566.60	0.169
567.05	0.168
567.50	0.169
567.96	0.170
568.41	0.168
568.86	0.169
569.31	0.170
569.76	0.170
570.21	0.170
570.67	0.169
571.12	0.171
571.57	0.170
572.02	0.173
572.47	0.172
572.92	0.170
573.37	0.171
573.83	0.170
574.28	0.172
574.73	0.172
575.18	0.171
575.63	0.172
576.08	0.173
576.53	0.174
576.98	0.172
577.44	0.174
577.89	0.172
578.34	0.173
578.79	0.174
579.24	0.172
579.69	0.174
580.14	0.173
580.59	0.173
581.04	0.173
581.49	0.171
581.95	0.174
582.40	0.171
582.85	0.173
583.30	0.173
583.75	0.173
584.20	0.175
584.65	0.173
585.10	0.173
585.55	0.173
586.00	0.175
586.45	0.174
586.90	0.174
587.35	0.173
587.80	0.174
588.25	0.174
588.71	0.174
589.16	0.172
589.61	0.173
590.06	0.173
590.51	0.173
590.96	0.174
591.41	0.174
591.86	0.176
592.31	0.173
592.76	0.174
593.21	0.172
593.66	0.173
594.11	0.173
594.56	0.175
595.01	0.174
595.46	0.175
595.91	0.173
596.36	0.174
596.81	0.175
597.26	0.174
597.71	0.174
598.16	0.174
598.61	0.174
599.06	0.174
599.51	0.175
599.96	0.174
600.41	0.173
600.86	0.175
601.31	0.174
601.76	0.173
602.21	0.174
602.65	0.175
603.10	0.175
603.55	0.176
604.00	0.175
604.45	0.173
604.90	0.173
605.35	0.174
605.80	0.172
606.25	0.172
606.70	0.175
607.15	0.176
607.60	0.174
608.05	0.174
608.50	0.175
608.95	0.175
609.39	0.176
609.84	0.175
610.29	0.175
610.74	0.177
611.19	0.176
611.64	0.178
612.09	0.176
612.54	0.176
612.99	0.179
613.44	0.178
613.88	0.177
614.33	0.177
614.78	0.178
615.23	0.180
615.68	0.176
616.13	0.178
616.58	0.179
617.03	0.179
617.47	0.180
617.92	0.180
618.37	0.180
618.82	0.181
619.27	0.182
619.72	0.180
620.17	0.180
620.61	0.181
621.06	0.180
621.51	0.182
621.96	0.182
622.41	0.182
622.86	0.182
623.30	0.180
623.75	0.183
624.20	0.181
624.65	0.179
625.10	0.182
625.54	0.183
625.99	0.183
626.44	0.182
626.89	0.184
627.34	0.183
627.78	0.182
628.23	0.184
628.68	0.184
629.13	0.184
629.58	0.184
630.02	0.183
630.47	0.183
630.92	0.184
631.37	0.184
631.81	0.183
632.26	0.184
632.71	0.187
633.16	0.184
633.61	0.185
634.05	0.183
634.50	0.183
634.95	0.183
635.40	0.182
635.84	0.183
636.29	0.183
636.74	0.181
637.18	0.181
637.63	0.184
638.08	0.182
638.53	0.181
638.97	0.180
639.42	0.181
639.87	0.181
640.32	0.181
640.76	0.181
641.21	0.181
641.66	0.179
642.10	0.179
642.55	0.179
643.00	0.180
643.44	0.181
643.89	0.181
644.34	0.179
644.79	0.179
645.23	0.179
645.68	0.178
646.13	0.177
646.57	0.178
647.02	0.178
647.47	0.177
647.91	0.176
648.36	0.177
648.81	0.177
649.25	0.177
649.70	0.178
650.15	0.176
650.59	0.178
651.04	0.178
651.48	0.177
651.93	0.176
652.38	0.179
652.82	0.177
653.27	0.177
653.72	0.177
654.16	0.176
654.61	0.177
655.06	0.176
655.50	0.173
655.95	0.169
656.39	0.168
656.84	0.173
657.29	0.178
657.73	0.177
658.18	0.177
658.62	0.178
659.07	0.175
659.52	0.178
659.96	0.175
660.41	0.177
660.85	0.178
661.30	0.177
661.74	0.177
662.19	0.178
662.64	0.176
663.08	0.178
663.53	0.177
663.97	0.176
664.42	0.177
664.86	0.178
665.31	0.179
665.75	0.175
666.20	0.177
666.65	0.179
667.09	0.177
667.54	0.177
667.98	0.179
668.43	0.176
668.87	0.178
669.32	0.179
669.76	0.176
670.21	0.177
670.65	0.176
671.10	0.178
671.54	0.177
671.99	0.177
672.43	0.177
672.88	0.179
673.32	0.177
673.77	0.177
674.21	0.177
674.66	0.176
675.10	0.177
675.55	0.177
675.99	0.177
676.44	0.176
676.88	0.176
677.33	0.176
677.77	0.176
678.22	0.175
678.66	0.175
679.11	0.175
679.55	0.175
679.99	0.171
680.44	0.171
680.88	0.171
681.33	0.174
681.77	0.171
682.22	0.172
682.66	0.170
683.11	0.169
683.55	0.167
683.99	0.166
684.44	0.167
684.88	0.165
685.33	0.164
685.77	0.165
686.21	0.164
686.66	0.163
687.10	0.161
687.55	0.159
687.99	0.158
688.44	0.160
688.88	0.159
689.32	0.155
689.77	0.155
690.21	0.154
690.65	0.155
691.10	0.154
691.54	0.148
691.99	0.150
692.43	0.151
692.87	0.146
693.32	0.145
693.76	0.146
694.20	0.142
694.65	0.143
695.09	0.141
695.53	0.139
695.98	0.138
696.42	0.135
696.86	0.136
697.31	0.133
697.75	0.132
698.19	0.130
698.64	0.131
699.08	0.127
699.52	0.128
699.97	0.125
700.41	0.122
700.85	0.122
701.30	0.121
701.74	0.119
702.18	0.118
702.63	0.117
703.07	0.113
703.51	0.113
703.96	0.112
704.40	0.111
704.84	0.107
705.28	0.107
705.73	0.105
706.17	0.105
706.61	0.100
707.06	0.101
707.50	0.101
707.94	0.099
708.38	0.097
708.83	0.095
709.27	0.095
709.71	0.093
710.15	0.091
710.60	0.089
711.04	0.089
711.48	0.086
711.92	0.086
712.37	0.084
712.81	0.081
713.25	0.079
713.69	0.079
714.13	0.078
714.58	0.079
715.02	0.077
715.46	0.076
715.90	0.077
716.35	0.073
716.79	0.074
717.23	0.073
717.67	0.069
718.11	0.068
718.56	0.070
719.00	0.068
719.44	0.066
719.88	0.065
720.32	0.064
720.76	0.064
721.21	0.063
721.65	0.061
722.09	0.058
722.53	0.060
722.97	0.058
723.41	0.057
723.86	0.055
724.30	0.056
724.74	0.054
725.18	0.054
725.62	0.054
726.06	0.052
726.50	0.053
726.95	0.049
727.39	0.053
727.83	0.052
728.27	0.050
728.71	0.049
729.15	0.050
729.59	0.047
730.03	0.048
730.48	0.047
730.92	0.046
731.36	0.048
731.80	0.047
732.24	0.046
732.68	0.045
733.12	0.045
733.56	0.041
734.00	0.044
734.44	0.046
734.89	0.041
735.33	0.042
735.77	0.040
736.21	0.039
736.65	0.043
737.09	0.042
737.53	0.039
737.97	0.040
738.41	0.038
738.85	0.039
739.29	0.038
739.73	0.037
740.17	0.038
740.61	0.037
741.05	0.040
741.49	0.034
741.93	0.039
742.37	0.035
742.81	0.037
743.26	0.035
743.70	0.036
744.14	0.035
744.58	0.034
745.02	0.035
745.46	0.037
745.90	0.036
746.34	0.033
746.78	0.035
747.22	0.031
747.66	0.032
748.10	0.034
748.54	0.033
748.98	0.030
749.42	0.032
749.86	0.032
750.29	0.032
750.73	0.034
751.17	0.031
751.61	0.030
752.05	0.032
752.49	0.031
752.93	0.031
753.37	0.028
753.81	0.032
754.25	0.027
754.69	0.031
755.13	0.029
755.57	0.028
756.01	0.030
756.45	0.030
756.89	0.030
757.33	0.031
757.77	0.030
758.21	0.031
758.64	0.028
759.08	0.030
759.52	0.030
759.96	0.028
760.40	0.030
760.84	0.027
761.28	0.025
761.72	0.027
762.16	0.030
762.60	0.027
763.03	0.026
763.47	0.026
763.91	0.026
764.35	0.026
764.79	0.027
765.23	0.025
765.67	0.025
766.11	0.028
766.54	0.027
766.98	0.025
767.42	0.023
767.86	0.026
768.30	0.025
768.74	0.026
769.17	0.025
769.61	0.025
770.05	0.024
770.49	0.025
770.93	0.026
771.37	0.025
771.80	0.024
772.24	0.025
772.68	0.026
773.12	0.026
773.56	0.027
774.00	0.024
774.43	0.023
774.87	0.027
775.31	0.028
775.75	0.024
776.19	0.024
776.62	0.021
777.06	0.024
777.50	0.023
777.94	0.024
778.37	0.024
778.81	0.029
779.25	0.026
779.69	0.023
780.13	0.024
780.56	0.024
781.00	0.023
781.44	0.024
781.88	0.025
782.31	0.025
782.75	0.024
783.19	0.022
783.63	0.025
784.06	0.024
784.50	0.022
784.94	0.022
785.37	0.024
785.81	0.023
786.25	0.024
786.69	0.025
787.12	0.025
787.56	0.021
788.00	0.022
788.43	0.024
788.87	0.022
789.31	0.026
789.75	0.029
790.18	0.024
790.62	0.022
791.06	0.020
791.49	0.020
791.93	0.022
792.37	0.021
792.80	0.023
793.24	0.025
793.68	0.022
794.11	0.023
794.55	0.022
794.99	0.024
795.42	0.026
795.86	0.023
796.30	0.024
796.73	0.021
797.17	0.021
797.61	0.023
798.04	0.022
798.48	0.021
798.91	0.024
799.35	0.022
799.79	0.022
800.22	0.025
800.66	0.026
801.10	0.023
801.53	0.021
801.97	0.024
802.40	0.022
802.84	0.021
803.28	0.022
803.71	0.022
804.15	0.024
804.58	0.024
805.02	0.028
805.46	0.026
805.89	0.024
806.33	0.024
806.76	0.023
807.20	0.022
807.63	0.018
808.07	0.022
808.51	0.021
808.94	0.020
809.38	0.023
809.81	0.024
810.25	0.026
810.68	0.027
811.12	0.024
811.55	0.025
811.99	0.021
812.42	0.022
812.86	0.024
813.29	0.025
813.73	0.022
814.17	0.024
814.60	0.024
815.04	0.019
815.47	0.023
815.91	0.022
816.34	0.021
816.78	0.025
817.21	0.022
817.65	0.023
818.08	0.026
818.52	0.025
818.95	0.025
819.39	0.027
819.82	0.024
820.25	0.025
820.69	0.020
821.12	0.023
821.56	0.024
821.99	0.020
822.43	0.022
822.86	0.023
823.30	0.026
823.73	0.018
824.17	0.026
824.60	0.026
825.04	0.021
825.47	0.022
825.90	0.025
826.34	0.028
826.77	0.024
827.21	0.024
827.64	0.023
828.08	0.024
828.51	0.019
828.94	0.023
829.38	0.027
829.81	0.025
830.25	0.027
830.68	0.024
831.11	0.023
831.55	0.024
831.98	0.026
832.42	0.028
832.85	0.028
833.28	0.029
833.72	0.028
834.15	0.033
834.58	0.029
835.02	0.026
835.45	0.027
835.88	0.031
836.32	0.031
836.75	0.031
837.19	0.027
837.62	0.024
838.05	0.025
838.49	0.028
838.92	0.034
839.35	0.030
839.79	0.030
840.22	0.028
840.65	0.029
841.09	0.029
841.52	0.033
841.95	0.031
842.39	0.030
842.82	0.030
843.25	0.025
843.68	0.030
844.12	0.031
844.55	0.029
844.98	0.029
845.42	0.027
845.85	0.031
846.28	0.029
846.71	0.028
847.15	0.029
847.58	0.027
848.01	0.033
848.45	0.036
848.88	0.036
849.31	0.028
849.74	0.034
850.18	0.034
850.61	0.029
851.04	0.033
851.47	0.033
851.91	0.033
852.34	0.032
852.77	0.032
853.20	0.032
853.64	0.032
854.07	0.031
854.50	0.036
854.93	0.034
855.36	0.034
855.80	0.034
856.23	0.032
856.66	0.040
857.09	0.030
857.52	0.034
857.96	0.035
858.39	0.036
858.82	0.035
859.25	0.035
859.68	0.034
860.12	0.037
860.55	0.037
860.98	0.029
861.41	0.035
861.84	0.039
862.27	0.033
862.71	0.030
863.14	0.041
863.57	0.035
864.00	0.037
864.43	0.040
864.86	0.036
865.30	0.036
865.73	0.036
866.16	0.040
866.59	0.036
867.02	0.032
867.45	0.042
867.88	0.039
868.31	0.033
868.75	0.036
869.18	0.036
869.61	0.042
870.04	0.035
870.47	0.033
870.90	0.036
871.33	0.033
871.76	0.035
872.19	0.027
872.62	0.042
873.06	0.040
873.49	0.041
873.92	0.039
874.35	0.043
874.78	0.038
875.21	0.039
875.64	0.040
876.07	0.046
876.50	0.040
876.93	0.044
877.36	0.046
877.79	0.040
878.22	0.040
878.65	0.042
879.08	0.041
879.51	0.040
879.94	0.044
880.37	0.048
880.80	0.046
881.23	0.044
881.67	0.044
882.10	0.044
882.53	0.045
882.96	0.041
883.39	0.046
883.82	0.045
884.25	0.046
884.68	0.043
885.11	0.044
885.54	0.043
885.97	0.045
886.39	0.048
886.82	0.046
887.25	0.043
887.68	0.053
888.11	0.044
888.54	0.049
888.97	0.052
889.40	0.052
889.83	0.048
890.26	0.056
890.69	0.053
891.12	0.051
891.55	0.049
891.98	0.047
892.41	0.050
892.84	0.048
893.27	0.053
893.70	0.052
894.13	0.048
894.56	0.055
894.98	0.053
895.41	0.049
895.84	0.045
896.27	0.055
896.70	0.054
897.13	0.046
897.56	0.055
897.99	0.055
898.42	0.054
898.85	0.052
899.27	0.048
899.70	0.055
900.13	0.057
900.56	0.053
900.99	0.056
901.42	0.057
901.85	0.060
902.28	0.058
902.70	0.059
903.13	0.055
903.56	0.053
903.99	0.058
904.42	0.060
904.85	0.051
905.27	0.056
905.70	0.056
906.13	0.058
906.56	0.059
906.99	0.057
907.42	0.061
907.84	0.059
908.27	0.055
908.70	0.057
909.13	0.056
909.56	0.056
909.98	0.060
910.41	0.057
910.84	0.053
911.27	0.056
911.70	0.057
912.12	0.057
912.55	0.060
912.98	0.057
913.41	0.054
913.84	0.054
914.26	0.054
914.69	0.056
915.12	0.053
915.55	0.055
915.97	0.054
916.40	0.054
916.83	0.055
917.26	0.056
917.68	0.057
918.11	0.052
918.54	0.055
918.97	0.056
919.39	0.054
919.82	0.053
920.25	0.056
920.67	0.054
921.10	0.058
921.53	0.055
921.96	0.056
922.38	0.055
922.81	0.058
923.24	0.058
923.66	0.054
924.09	0.056
924.52	0.059
924.94	0.056
925.37	0.059
925.80	0.057
926.22	0.058
926.65	0.060
927.08	0.060
927.50	0.061
927.93	0.059
928.36	0.061
928.78	0.059
929.21	0.062
929.64	0.061
930.06	0.065
930.49	0.066
930.92	0.067
931.34	0.063
931.77	0.062
932.20	0.070
932.62	0.072
933.05	0.070
933.47	0.067
933.90	0.069
934.33	0.074
934.75	0.072
935.18	0.077
935.61	0.076
936.03	0.076
936.46	0.077
936.88	0.075
937.31	0.082
937.73	0.079
938.16	0.083
938.59	0.085
939.01	0.084
939.44	0.081
939.86	0.092
940.29	0.084
940.71	0.085
941.14	0.081
941.57	0.090
941.99	0.094
942.42	0.088
942.84	0.090
943.27	0.099
943.69	0.097
944.12	0.102
944.54	0.094
944.97	0.099
945.39	0.101
945.82	0.104
946.24	0.102
946.67	0.112
947.09	0.106
947.52	0.101
947.94	0.110
948.37	0.107
948.79	0.114
949.22	0.115
949.64	0.121
950.07	0.119
950.49	0.118
950.92	0.121
951.34	0.122
951.77	0.126
952.19	0.120
952.62	0.130
953.04	0.130
953.47	0.138
953.89	0.136
954.32	0.138
954.74	0.138
955.17	0.140
955.59	0.144
956.01	0.144
956.44	0.150
956.86	0.151
957.29	0.151
957.71	0.153
958.14	0.154
958.56	0.150
958.98	0.156
959.41	0.165
959.83	0.154
960.26	0.160
960.68	0.165
961.10	0.154
961.53	0.164
961.95	0.167
962.38	0.171
962.80	0.165
963.22	0.160
963.65	0.175
964.07	0.169
964.50	0.173
964.92	0.173
965.34	0.170
965.77	0.174
966.19	0.173
966.61	0.175
967.04	0.178
967.46	0.177
967.88	0.175
968.31	0.177
968.73	0.181
969.15	0.180
969.58	0.180
970.00	0.179
970.42	0.178
970.85	0.180
971.27	0.182
971.69	0.189
972.12	0.188
972.54	0.184
972.96	0.187
973.39	0.182
973.81	0.181
974.23	0.182
974.65	0.182
975.08	0.186
975.50	0.186
975.92	0.189
976.35	0.187
976.77	0.194
977.19	0.188
977.61	0.192
978.04	0.190
978.46	0.191
978.88	0.183
979.30	0.194
979.73	0.191
980.15	0.196
980.57	0.188
980.99	0.194
981.42	0.185
981.84	0.191
982.26	0.188
982.68	0.194
983.11	0.193
983.53	0.192
983.95	0.185
984.37	0.193
984.79	0.190
985.22	0.185
985.64	0.191
986.06	0.193
986.48	0.189
986.90	0.193
987.33	0.194
987.75	0.189
988.17	0.195
988.59	0.188
989.01	0.194
989.43	0.185
989.86	0.190
990.28	0.186
990.70	0.187
991.12	0.183
991.54	0.189
991.96	0.189
992.39	0.183
992.81	0.184
993.23	0.188
993.65	0.191
994.07	0.180
994.49	0.189
994.91	0.183
995.34	0.184
995.76	0.183
996.18	0.186
996.60	0.180
997.02	0.181
997.44	0.185
997.86	0.185
998.28	0.185
998.70	0.186
999.12	0.181
999.55	0.190
999.97	0.196
1000.39	0.185
1000.81	0.183
1001.23	0.184
1001.65	0.175
1002.07	0.181
1002.49	0.182
1002.91	0.184
1003.33	0.181
1003.75	0.181
1004.17	0.180
1004.59	0.186
1005.01	0.176
1005.43	0.173
1005.85	0.189
1006.28	0.176
1006.70	0.178
1007.12	0.176
1007.54	0.171
1007.96	0.172
1008.38	0.181
1008.80	0.175
1009.22	0.172
1009.64	0.168
1010.06	0.176
1010.48	0.179
1010.90	0.163
1011.32	0.173
1011.74	0.165
1012.16	0.177
1012.58	0.168
1013.00	0.168
1013.42	0.164
1013.84	0.164
1014.26	0.156
1014.67	0.157
1015.09	0.168
1015.51	0.161
1015.93	0.160
1016.35	0.157
1016.77	0.160
1017.19	0.147
1017.61	0.159
1018.03	0.165
1018.45	0.170
1018.87	0.157
1019.29	0.156
1019.71	0.159
1020.13	0.148
1020.55	0.170
1020.97	0.151
1021.38	0.162
1021.80	0.153
1022.22	0.161
1022.64	0.149
1023.06	0.158
1023.48	0.150
1023.90	0.148
1024.32	0.151
1024.74	0.153
1025.15	0.139
1025.57	0.159
1025.99	0.159
1026.41	0.149
1026.83	0.155
1027.25	0.143
1027.67	0.149
1028.08	0.138
1028.50	0.142
1028.92	0.143
1029.34	0.146
1029.76	0.138
1030.18	0.163
1030.60	0.139
1031.01	0.140
1031.43	0.136
1031.85	0.135
1032.27	0.142
1032.69	0.122
1033.10	0.143
1033.52	0.143
1033.94	0.138
1034.36	0.148
1034.78	0.137
1035.19	0.141
1035.61	0.147
1036.03	0.136
1036.45	0.118
1036.87	0.151
1037.28	0.128
1037.70	0.128
1038.12	0.143
1038.54	0.146
1038.95	0.137
1039.37	0.130
1039.79	0.137
1040.21	0.140
1040.62	0.146
1041.04	0.149
1041.46	0.145
1041.88	0.143
1042.29	0.150
1042.71	0.135
1043.13	0.154
1043.55	0.127
1043.96	0.135
1044.38	0.137
1044.80	0.131
1045.21	0.110
1045.63	0.146
1046.05	0.147
1046.47	0.138
1046.88	0.144
1047.30	0.121
1047.72	0.148
1048.13	0.122
1048.55	0.115
1048.97	0.124
1049.38	0.120
1049.80	0.142
1050.22	0.133
1050.63	0.161
1051.05	0.157
1051.47	0.143
1051.88	0.128
1052.30	0.181
1052.72	0.124
1053.13	0.141
1053.55	0.102
1053.97	0.164
1054.38	0.151
1054.80	0.167
1055.21	0.140
1055.63	0.135
1056.05	0.148
1056.46	0.182
1056.88	0.147
1057.29	0.156
1057.71	0.153
1058.13	0.215
1058.54	0.190
1058.96	0.132
1059.37	0.171
1059.79	0.191
1060.21	0.126
1060.62	0.130
1061.04	0.206
1061.45	0.236
1061.87	0.159
1062.28	0.214
1062.70	0.205
1063.12	0.232
1063.53	0.231
1063.95	0.273
1064.36	0.280
1064.78	0.280
1065.19	0.211
1065.61	0.198
1066.02	0.249
1066.44	0.287
1066.85	0.257
1067.27	0.242
1067.68	0.252
1068.10	0.207
1068.51	0.208
1068.93	0.313
1069.35	0.230
1069.76	0.293
1070.17	0.488
1070.59	0.300
1071.00	0.234
1071.42	0.339
1071.83	0.312
1072.25	0.445
1072.66	0.361
1073.08	0.436
1073.49	0.397
1073.91	0.427
1074.32	0.723
1074.74	0.532
1075.15	0.342
1075.57	0.490
1075.98	0.734
1076.40	0.412
1076.81	0.511
1077.22	0.337
1077.64	0.681
1078.05	1.011
1078.47	1.130
1078.88	0.744
1079.30	0.640
1079.71	0.987
1080.12	-0.000
1080.54	-0.000
1080.95	0.766
1081.37	-0.000
1081.78	0.411
1082.19	0.686
1082.61	-0.000
1083.02	-0.000
1083.44	0.925
1083.85	1.207
1084.26	-0.000
1084.68	1.400
1085.09	-0.000
1085.50	1.695
1085.92	-0.000
1086.33	0.940
1086.74	-0.000
1087.16	-0.000
1087.57	-0.000
1087.98	1.249
1088.40	-0.000
1088.81	-0.000
1089.22	-0.000
1089.64	0.903
1090.05	1.370
1090.46	1.198
1090.88	-0.000
1091.29	-0.000
1091.70	-0.000
1092.12	-0.000
1092.53	-0.000
1092.94	-0.000
1093.36	1.475
1093.77	1.219
1094.18	1.174
1094.59	-0.000
1095.01	-0.000
1095.42	-0.000
1095.83	-0.000
1096.25	-0.000
1096.66	-0.000
1097.07	1.524
1097.48	-0.000
1097.90	1.277
1098.31	-0.000
1098.72	-0.000
1099.13	1.599
>>>>>End Processed Spectral Data<<<<<
