SpectraSuite Data File
++++++++++++++++++++++++++++++++++++
Date: Wed May 04 13:13:42 CEST 2016
User: spectrasuite
Dark Spectrum Present: Yes
Reference Spectrum Present: Yes
Number of Sampled Component Spectra: 1
Spectrometers: HR+C0708
Integration Time (usec): 1000 (HR+C0708)
Spectra Averaged: 10 (HR+C0708)
Boxcar Smoothing: 0 (HR+C0708)
Correct for Electrical Dark: No (HR+C0708)
Strobe/Lamp Enabled: No (HR+C0708)
Correct for Detector Non-linearity: No (HR+C0708)
Correct for Stray Light: No (HR+C0708)
Number of Pixels in Processed Spectrum: 2048
>>>>>Begin Processed Spectral Data<<<<<
188.76	0.403
189.23	-0.000
189.70	0.876
190.17	0.692
190.64	-0.000
191.12	-0.000
191.59	-0.753
192.06	-0.000
192.53	-0.000
193.01	-0.000
193.48	0.769
193.95	-0.000
194.42	-0.000
194.90	-0.000
195.37	-0.000
195.84	-0.000
196.31	0.674
196.78	-0.000
197.26	-0.000
197.73	1.036
198.20	0.616
198.67	-0.000
199.14	0.553
199.62	1.952
200.09	1.477
200.56	0.581
201.03	0.616
201.50	0.492
201.97	0.398
202.45	0.924
202.92	0.726
203.39	0.659
203.86	0.558
204.33	0.468
204.80	0.872
205.28	0.434
205.75	0.641
206.22	0.472
206.69	0.598
207.16	0.527
207.63	0.632
208.11	0.649
208.58	0.591
209.05	0.729
209.52	0.548
209.99	0.418
210.46	0.339
210.93	0.568
211.41	0.454
211.88	0.595
212.35	0.707
212.82	0.885
213.29	0.639
213.76	0.561
214.23	0.761
214.70	0.788
215.18	0.770
215.65	0.468
216.12	0.539
216.59	0.603
217.06	0.456
217.53	0.533
218.00	0.786
218.47	0.522
218.94	0.611
219.41	0.520
219.89	0.466
220.36	0.492
220.83	0.586
221.30	0.734
221.77	0.736
222.24	0.447
222.71	0.775
223.18	0.592
223.65	0.557
224.12	0.760
224.59	0.695
225.06	0.814
225.54	0.628
226.01	0.943
226.48	0.981
226.95	1.165
227.42	0.897
227.89	1.560
228.36	1.236
228.83	1.024
229.30	1.248
229.77	1.425
230.24	1.181
230.71	1.230
231.18	1.333
231.65	1.690
232.12	1.897
232.59	1.567
233.06	1.858
233.53	1.715
234.00	1.566
234.47	1.850
234.94	2.186
235.41	1.996
235.88	1.869
236.35	2.039
236.82	1.957
237.29	2.013
237.76	1.922
238.23	2.314
238.70	2.245
239.17	1.961
239.64	2.374
240.11	2.224
240.58	2.004
241.05	2.301
241.52	2.289
241.99	2.191
242.46	2.275
242.93	2.206
243.40	2.695
243.87	2.485
244.34	2.230
244.81	2.402
245.28	2.512
245.75	2.310
246.22	2.583
246.69	2.954
247.16	2.457
247.63	2.491
248.10	2.429
248.57	2.881
249.04	2.506
249.51	2.340
249.98	2.886
250.45	2.545
250.92	2.483
251.39	2.468
251.85	2.687
252.32	2.376
252.79	2.366
253.26	2.271
253.73	2.215
254.20	2.055
254.67	2.015
255.14	2.118
255.61	2.034
256.08	1.919
256.55	1.922
257.02	1.880
257.49	1.808
257.95	1.784
258.42	1.735
258.89	1.720
259.36	1.692
259.83	1.670
260.30	1.660
260.77	1.615
261.24	1.583
261.71	1.564
262.17	1.554
262.64	1.527
263.11	1.498
263.58	1.490
264.05	1.470
264.52	1.446
264.99	1.438
265.46	1.418
265.92	1.396
266.39	1.392
266.86	1.390
267.33	1.362
267.80	1.349
268.27	1.348
268.74	1.344
269.20	1.323
269.67	1.315
270.14	1.302
270.61	1.288
271.08	1.273
271.55	1.254
272.01	1.259
272.48	1.244
272.95	1.229
273.42	1.234
273.89	1.221
274.36	1.215
274.82	1.212
275.29	1.206
275.76	1.197
276.23	1.194
276.70	1.176
277.16	1.179
277.63	1.171
278.10	1.157
278.57	1.156
279.04	1.158
279.50	1.151
279.97	1.146
280.44	1.148
280.91	1.149
281.38	1.140
281.84	1.135
282.31	1.131
282.78	1.129
283.25	1.129
283.72	1.124
284.18	1.133
284.65	1.122
285.12	1.121
285.59	1.117
286.05	1.123
286.52	1.118
286.99	1.115
287.46	1.119
287.92	1.116
288.39	1.110
288.86	1.113
289.33	1.110
289.79	1.103
290.26	1.106
290.73	1.103
291.20	1.096
291.66	1.098
292.13	1.099
292.60	1.089
293.07	1.085
293.53	1.084
294.00	1.080
294.47	1.067
294.93	1.057
295.40	1.050
295.87	1.052
296.34	1.033
296.80	1.028
297.27	1.021
297.74	1.007
298.20	0.998
298.67	0.984
299.14	0.983
299.60	0.970
300.07	0.960
300.54	0.945
301.01	0.940
301.47	0.929
301.94	0.921
302.41	0.905
302.87	0.897
303.34	0.888
303.81	0.878
304.27	0.873
304.74	0.859
305.21	0.845
305.67	0.844
306.14	0.837
306.61	0.830
307.07	0.819
307.54	0.816
308.01	0.808
308.47	0.798
308.94	0.791
309.40	0.787
309.87	0.781
310.34	0.776
310.80	0.772
311.27	0.766
311.74	0.761
312.20	0.763
312.67	0.754
313.13	0.747
313.60	0.743
314.07	0.743
314.53	0.736
315.00	0.729
315.47	0.724
315.93	0.729
316.40	0.721
316.86	0.718
317.33	0.713
317.80	0.709
318.26	0.706
318.73	0.706
319.19	0.698
319.66	0.693
320.13	0.692
320.59	0.691
321.06	0.691
321.52	0.685
321.99	0.681
322.45	0.676
322.92	0.677
323.39	0.670
323.85	0.666
324.32	0.664
324.78	0.659
325.25	0.653
325.71	0.655
326.18	0.649
326.64	0.645
327.11	0.638
327.58	0.636
328.04	0.638
328.51	0.627
328.97	0.629
329.44	0.628
329.90	0.621
330.37	0.616
330.83	0.615
331.30	0.612
331.76	0.606
332.23	0.609
332.69	0.604
333.16	0.602
333.62	0.596
334.09	0.595
334.56	0.589
335.02	0.586
335.49	0.581
335.95	0.578
336.42	0.573
336.88	0.569
337.35	0.564
337.81	0.566
338.28	0.570
338.74	0.571
339.20	0.570
339.67	0.572
340.13	0.567
340.60	0.565
341.06	0.560
341.53	0.556
341.99	0.556
342.46	0.551
342.92	0.551
343.39	0.544
343.85	0.546
344.32	0.542
344.78	0.540
345.25	0.546
345.71	0.543
346.17	0.547
346.64	0.543
347.10	0.536
347.57	0.528
348.03	0.518
348.50	0.512
348.96	0.514
349.43	0.509
349.89	0.505
350.35	0.499
350.82	0.494
351.28	0.487
351.75	0.479
352.21	0.480
352.67	0.467
353.14	0.464
353.60	0.449
354.07	0.439
354.53	0.439
355.00	0.426
355.46	0.414
355.92	0.407
356.39	0.404
356.85	0.388
357.31	0.373
357.78	0.361
358.24	0.350
358.71	0.341
359.17	0.324
359.63	0.312
360.10	0.297
360.56	0.280
361.03	0.268
361.49	0.254
361.95	0.237
362.42	0.226
362.88	0.213
363.34	0.199
363.81	0.187
364.27	0.177
364.73	0.168
365.20	0.157
365.66	0.149
366.12	0.143
366.59	0.136
367.05	0.131
367.51	0.125
367.98	0.123
368.44	0.118
368.90	0.116
369.37	0.114
369.83	0.113
370.29	0.106
370.76	0.103
371.22	0.103
371.68	0.103
372.15	0.102
372.61	0.099
373.07	0.101
373.54	0.097
374.00	0.095
374.46	0.100
374.92	0.099
375.39	0.098
375.85	0.096
376.31	0.096
376.78	0.095
377.24	0.094
377.70	0.095
378.16	0.094
378.63	0.094
379.09	0.093
379.55	0.091
380.01	0.091
380.48	0.092
380.94	0.090
381.40	0.091
381.87	0.093
382.33	0.090
382.79	0.089
383.25	0.087
383.72	0.089
384.18	0.088
384.64	0.089
385.10	0.088
385.56	0.087
386.03	0.088
386.49	0.087
386.95	0.088
387.41	0.085
387.88	0.082
388.34	0.083
388.80	0.084
389.26	0.086
389.72	0.087
390.19	0.083
390.65	0.082
391.11	0.082
391.57	0.086
392.04	0.084
392.50	0.083
392.96	0.084
393.42	0.080
393.88	0.083
394.34	0.080
394.81	0.082
395.27	0.082
395.73	0.078
396.19	0.080
396.65	0.081
397.12	0.078
397.58	0.079
398.04	0.080
398.50	0.079
398.96	0.077
399.42	0.078
399.89	0.079
400.35	0.078
400.81	0.076
401.27	0.078
401.73	0.075
402.19	0.077
402.65	0.075
403.12	0.079
403.58	0.076
404.04	0.073
404.50	0.073
404.96	0.072
405.42	0.074
405.88	0.074
406.34	0.076
406.81	0.072
407.27	0.072
407.73	0.070
408.19	0.072
408.65	0.071
409.11	0.070
409.57	0.068
410.03	0.072
410.49	0.070
410.96	0.070
411.42	0.070
411.88	0.068
412.34	0.066
412.80	0.070
413.26	0.068
413.72	0.067
414.18	0.065
414.64	0.066
415.10	0.068
415.56	0.070
416.02	0.067
416.48	0.067
416.95	0.069
417.41	0.066
417.87	0.067
418.33	0.066
418.79	0.065
419.25	0.069
419.71	0.066
420.17	0.064
420.63	0.063
421.09	0.064
421.55	0.065
422.01	0.063
422.47	0.065
422.93	0.064
423.39	0.065
423.85	0.063
424.31	0.065
424.77	0.067
425.23	0.062
425.69	0.066
426.15	0.065
426.61	0.066
427.07	0.063
427.53	0.062
427.99	0.063
428.45	0.065
428.91	0.063
429.37	0.064
429.83	0.062
430.29	0.063
430.75	0.062
431.21	0.061
431.67	0.065
432.13	0.064
432.59	0.063
433.05	0.064
433.51	0.062
433.97	0.061
434.43	0.065
434.89	0.064
435.35	0.064
435.81	0.065
436.27	0.065
436.73	0.063
437.19	0.064
437.65	0.059
438.11	0.061
438.57	0.063
439.03	0.061
439.48	0.063
439.94	0.062
440.40	0.060
440.86	0.061
441.32	0.064
441.78	0.060
442.24	0.065
442.70	0.065
443.16	0.062
443.62	0.064
444.08	0.060
444.54	0.062
444.99	0.063
445.45	0.057
445.91	0.061
446.37	0.063
446.83	0.064
447.29	0.063
447.75	0.059
448.21	0.066
448.67	0.064
449.12	0.063
449.58	0.062
450.04	0.063
450.50	0.062
450.96	0.059
451.42	0.063
451.88	0.064
452.34	0.061
452.79	0.060
453.25	0.064
453.71	0.062
454.17	0.060
454.63	0.063
455.09	0.062
455.55	0.061
456.00	0.060
456.46	0.062
456.92	0.065
457.38	0.061
457.84	0.063
458.30	0.063
458.75	0.063
459.21	0.063
459.67	0.063
460.13	0.063
460.59	0.064
461.04	0.063
461.50	0.060
461.96	0.063
462.42	0.063
462.88	0.063
463.33	0.063
463.79	0.063
464.25	0.061
464.71	0.064
465.17	0.063
465.62	0.060
466.08	0.062
466.54	0.064
467.00	0.063
467.46	0.062
467.91	0.062
468.37	0.060
468.83	0.064
469.29	0.064
469.74	0.062
470.20	0.062
470.66	0.062
471.12	0.063
471.57	0.062
472.03	0.063
472.49	0.065
472.95	0.065
473.40	0.063
473.86	0.064
474.32	0.062
474.78	0.061
475.23	0.062
475.69	0.062
476.15	0.065
476.60	0.065
477.06	0.065
477.52	0.061
477.98	0.064
478.43	0.066
478.89	0.066
479.35	0.066
479.80	0.063
480.26	0.062
480.72	0.066
481.18	0.063
481.63	0.065
482.09	0.062
482.55	0.064
483.00	0.062
483.46	0.065
483.92	0.064
484.37	0.063
484.83	0.060
485.29	0.064
485.74	0.064
486.20	0.063
486.66	0.062
487.11	0.064
487.57	0.064
488.03	0.063
488.48	0.067
488.94	0.064
489.40	0.064
489.85	0.062
490.31	0.065
490.77	0.063
491.22	0.065
491.68	0.063
492.13	0.065
492.59	0.066
493.05	0.064
493.50	0.063
493.96	0.063
494.42	0.065
494.87	0.064
495.33	0.064
495.78	0.062
496.24	0.066
496.70	0.065
497.15	0.063
497.61	0.066
498.06	0.064
498.52	0.064
498.98	0.065
499.43	0.066
499.89	0.065
500.34	0.062
500.80	0.063
501.25	0.063
501.71	0.062
502.17	0.064
502.62	0.063
503.08	0.063
503.53	0.061
503.99	0.064
504.44	0.063
504.90	0.061
505.36	0.064
505.81	0.064
506.27	0.063
506.72	0.064
507.18	0.063
507.63	0.064
508.09	0.064
508.54	0.063
509.00	0.062
509.45	0.063
509.91	0.062
510.36	0.063
510.82	0.065
511.27	0.063
511.73	0.062
512.19	0.063
512.64	0.061
513.10	0.064
513.55	0.061
514.01	0.063
514.46	0.064
514.92	0.062
515.37	0.065
515.83	0.062
516.28	0.063
516.73	0.062
517.19	0.063
517.64	0.062
518.10	0.063
518.55	0.064
519.01	0.064
519.46	0.062
519.92	0.061
520.37	0.063
520.83	0.064
521.28	0.061
521.74	0.061
522.19	0.065
522.65	0.062
523.10	0.062
523.55	0.065
524.01	0.062
524.46	0.063
524.92	0.061
525.37	0.063
525.83	0.063
526.28	0.063
526.73	0.062
527.19	0.062
527.64	0.062
528.10	0.063
528.55	0.065
529.01	0.064
529.46	0.065
529.91	0.061
530.37	0.064
530.82	0.066
531.28	0.065
531.73	0.063
532.18	0.067
532.64	0.064
533.09	0.066
533.54	0.065
534.00	0.066
534.45	0.065
534.91	0.065
535.36	0.068
535.81	0.066
536.27	0.067
536.72	0.064
537.17	0.066
537.63	0.068
538.08	0.068
538.54	0.069
538.99	0.070
539.44	0.069
539.90	0.069
540.35	0.069
540.80	0.067
541.26	0.068
541.71	0.071
542.16	0.071
542.62	0.073
543.07	0.070
543.52	0.072
543.98	0.071
544.43	0.070
544.88	0.071
545.34	0.073
545.79	0.075
546.24	0.073
546.69	0.072
547.15	0.075
547.60	0.074
548.05	0.075
548.51	0.075
548.96	0.076
549.41	0.077
549.86	0.076
550.32	0.077
550.77	0.077
551.22	0.079
551.68	0.077
552.13	0.078
552.58	0.080
553.03	0.082
553.49	0.079
553.94	0.081
554.39	0.082
554.84	0.082
555.30	0.080
555.75	0.082
556.20	0.083
556.65	0.084
557.11	0.086
557.56	0.086
558.01	0.087
558.46	0.084
558.92	0.087
559.37	0.091
559.82	0.087
560.27	0.089
560.72	0.092
561.18	0.090
561.63	0.093
562.08	0.094
562.53	0.093
562.99	0.094
563.44	0.095
563.89	0.095
564.34	0.096
564.79	0.098
565.25	0.099
565.70	0.098
566.15	0.098
566.60	0.101
567.05	0.101
567.50	0.104
567.96	0.103
568.41	0.104
568.86	0.103
569.31	0.105
569.76	0.104
570.21	0.105
570.67	0.105
571.12	0.107
571.57	0.109
572.02	0.111
572.47	0.109
572.92	0.110
573.37	0.115
573.83	0.115
574.28	0.113
574.73	0.114
575.18	0.116
575.63	0.116
576.08	0.118
576.53	0.118
576.98	0.119
577.44	0.121
577.89	0.121
578.34	0.124
578.79	0.123
579.24	0.124
579.69	0.126
580.14	0.129
580.59	0.128
581.04	0.132
581.49	0.133
581.95	0.133
582.40	0.135
582.85	0.137
583.30	0.137
583.75	0.139
584.20	0.142
584.65	0.142
585.10	0.147
585.55	0.145
586.00	0.147
586.45	0.150
586.90	0.151
587.35	0.153
587.80	0.154
588.25	0.155
588.71	0.158
589.16	0.162
589.61	0.161
590.06	0.165
590.51	0.167
590.96	0.168
591.41	0.171
591.86	0.174
592.31	0.176
592.76	0.177
593.21	0.179
593.66	0.184
594.11	0.184
594.56	0.186
595.01	0.189
595.46	0.190
595.91	0.193
596.36	0.195
596.81	0.197
597.26	0.201
597.71	0.202
598.16	0.205
598.61	0.208
599.06	0.210
599.51	0.212
599.96	0.214
600.41	0.216
600.86	0.219
601.31	0.222
601.76	0.225
602.21	0.227
602.65	0.229
603.10	0.231
603.55	0.232
604.00	0.236
604.45	0.237
604.90	0.239
605.35	0.243
605.80	0.240
606.25	0.244
606.70	0.248
607.15	0.248
607.60	0.253
608.05	0.253
608.50	0.256
608.95	0.255
609.39	0.256
609.84	0.258
610.29	0.260
610.74	0.262
611.19	0.263
611.64	0.265
612.09	0.267
612.54	0.269
612.99	0.268
613.44	0.268
613.88	0.270
614.33	0.270
614.78	0.273
615.23	0.274
615.68	0.274
616.13	0.274
616.58	0.275
617.03	0.277
617.47	0.277
617.92	0.279
618.37	0.279
618.82	0.278
619.27	0.279
619.72	0.281
620.17	0.283
620.61	0.283
621.06	0.282
621.51	0.282
621.96	0.283
622.41	0.285
622.86	0.284
623.30	0.286
623.75	0.285
624.20	0.288
624.65	0.288
625.10	0.289
625.54	0.290
625.99	0.288
626.44	0.292
626.89	0.291
627.34	0.293
627.78	0.296
628.23	0.297
628.68	0.297
629.13	0.298
629.58	0.300
630.02	0.302
630.47	0.301
630.92	0.304
631.37	0.308
631.81	0.310
632.26	0.309
632.71	0.313
633.16	0.315
633.61	0.316
634.05	0.319
634.50	0.319
634.95	0.323
635.40	0.326
635.84	0.328
636.29	0.330
636.74	0.333
637.18	0.336
637.63	0.340
638.08	0.340
638.53	0.342
638.97	0.347
639.42	0.351
639.87	0.353
640.32	0.357
640.76	0.359
641.21	0.365
641.66	0.366
642.10	0.369
642.55	0.375
643.00	0.378
643.44	0.381
643.89	0.386
644.34	0.388
644.79	0.394
645.23	0.395
645.68	0.399
646.13	0.403
646.57	0.409
647.02	0.410
647.47	0.414
647.91	0.419
648.36	0.422
648.81	0.425
649.25	0.431
649.70	0.432
650.15	0.437
650.59	0.441
651.04	0.446
651.48	0.447
651.93	0.453
652.38	0.457
652.82	0.461
653.27	0.460
653.72	0.469
654.16	0.469
654.61	0.468
655.06	0.474
655.50	0.480
655.95	0.481
656.39	0.483
656.84	0.487
657.29	0.492
657.73	0.492
658.18	0.496
658.62	0.498
659.07	0.504
659.52	0.501
659.96	0.507
660.41	0.510
660.85	0.513
661.30	0.512
661.74	0.515
662.19	0.516
662.64	0.517
663.08	0.519
663.53	0.522
663.97	0.521
664.42	0.520
664.86	0.521
665.31	0.524
665.75	0.522
666.20	0.520
666.65	0.520
667.09	0.521
667.54	0.520
667.98	0.515
668.43	0.514
668.87	0.513
669.32	0.513
669.76	0.509
670.21	0.505
670.65	0.501
671.10	0.496
671.54	0.492
671.99	0.489
672.43	0.481
672.88	0.476
673.32	0.471
673.77	0.466
674.21	0.458
674.66	0.448
675.10	0.443
675.55	0.432
675.99	0.424
676.44	0.416
676.88	0.409
677.33	0.399
677.77	0.389
678.22	0.377
678.66	0.370
679.11	0.362
679.55	0.351
679.99	0.343
680.44	0.332
680.88	0.325
681.33	0.314
681.77	0.305
682.22	0.295
682.66	0.289
683.11	0.275
683.55	0.268
683.99	0.260
684.44	0.251
684.88	0.242
685.33	0.233
685.77	0.226
686.21	0.216
686.66	0.207
687.10	0.200
687.55	0.194
687.99	0.185
688.44	0.179
688.88	0.171
689.32	0.167
689.77	0.160
690.21	0.155
690.65	0.146
691.10	0.141
691.54	0.138
691.99	0.133
692.43	0.129
692.87	0.123
693.32	0.120
693.76	0.114
694.20	0.110
694.65	0.108
695.09	0.102
695.53	0.097
695.98	0.097
696.42	0.094
696.86	0.090
697.31	0.088
697.75	0.084
698.19	0.083
698.64	0.080
699.08	0.075
699.52	0.074
699.97	0.072
700.41	0.071
700.85	0.070
701.30	0.064
701.74	0.066
702.18	0.062
702.63	0.059
703.07	0.058
703.51	0.059
703.96	0.059
704.40	0.058
704.84	0.055
705.28	0.054
705.73	0.053
706.17	0.051
706.61	0.053
707.06	0.048
707.50	0.049
707.94	0.049
708.38	0.044
708.83	0.045
709.27	0.046
709.71	0.046
710.15	0.041
710.60	0.046
711.04	0.041
711.48	0.043
711.92	0.042
712.37	0.041
712.81	0.039
713.25	0.042
713.69	0.039
714.13	0.038
714.58	0.040
715.02	0.038
715.46	0.036
715.90	0.039
716.35	0.038
716.79	0.039
717.23	0.041
717.67	0.038
718.11	0.036
718.56	0.037
719.00	0.038
719.44	0.038
719.88	0.036
720.32	0.038
720.76	0.034
721.21	0.038
721.65	0.037
722.09	0.036
722.53	0.036
722.97	0.037
723.41	0.035
723.86	0.036
724.30	0.038
724.74	0.039
725.18	0.035
725.62	0.035
726.06	0.038
726.50	0.037
726.95	0.038
727.39	0.039
727.83	0.036
728.27	0.037
728.71	0.037
729.15	0.037
729.59	0.033
730.03	0.037
730.48	0.037
730.92	0.038
731.36	0.035
731.80	0.036
732.24	0.040
732.68	0.039
733.12	0.038
733.56	0.038
734.00	0.039
734.44	0.038
734.89	0.039
735.33	0.037
735.77	0.039
736.21	0.039
736.65	0.038
737.09	0.039
737.53	0.041
737.97	0.038
738.41	0.040
738.85	0.039
739.29	0.039
739.73	0.041
740.17	0.036
740.61	0.038
741.05	0.042
741.49	0.039
741.93	0.040
742.37	0.038
742.81	0.039
743.26	0.038
743.70	0.040
744.14	0.041
744.58	0.039
745.02	0.039
745.46	0.042
745.90	0.038
746.34	0.040
746.78	0.040
747.22	0.038
747.66	0.038
748.10	0.040
748.54	0.039
748.98	0.038
749.42	0.038
749.86	0.040
750.29	0.039
750.73	0.040
751.17	0.040
751.61	0.041
752.05	0.039
752.49	0.039
752.93	0.038
753.37	0.039
753.81	0.041
754.25	0.037
754.69	0.039
755.13	0.041
755.57	0.039
756.01	0.036
756.45	0.037
756.89	0.038
757.33	0.038
757.77	0.039
758.21	0.038
758.64	0.036
759.08	0.037
759.52	0.038
759.96	0.040
760.40	0.040
760.84	0.038
761.28	0.037
761.72	0.039
762.16	0.038
762.60	0.038
763.03	0.041
763.47	0.038
763.91	0.038
764.35	0.037
764.79	0.039
765.23	0.037
765.67	0.037
766.11	0.038
766.54	0.037
766.98	0.037
767.42	0.036
767.86	0.039
768.30	0.036
768.74	0.035
769.17	0.039
769.61	0.039
770.05	0.037
770.49	0.040
770.93	0.037
771.37	0.040
771.80	0.033
772.24	0.037
772.68	0.036
773.12	0.038
773.56	0.037
774.00	0.037
774.43	0.036
774.87	0.034
775.31	0.039
775.75	0.037
776.19	0.036
776.62	0.038
777.06	0.036
777.50	0.039
777.94	0.035
778.37	0.037
778.81	0.037
779.25	0.034
779.69	0.038
780.13	0.038
780.56	0.035
781.00	0.037
781.44	0.038
781.88	0.036
782.31	0.034
782.75	0.033
783.19	0.035
783.63	0.036
784.06	0.036
784.50	0.038
784.94	0.039
785.37	0.035
785.81	0.037
786.25	0.033
786.69	0.034
787.12	0.036
787.56	0.035
788.00	0.037
788.43	0.036
788.87	0.036
789.31	0.039
789.75	0.036
790.18	0.033
790.62	0.037
791.06	0.035
791.49	0.039
791.93	0.033
792.37	0.032
792.80	0.038
793.24	0.036
793.68	0.037
794.11	0.037
794.55	0.037
794.99	0.035
795.42	0.038
795.86	0.038
796.30	0.035
796.73	0.035
797.17	0.035
797.61	0.036
798.04	0.037
798.48	0.037
798.91	0.037
799.35	0.035
799.79	0.036
800.22	0.033
800.66	0.033
801.10	0.040
801.53	0.039
801.97	0.036
802.40	0.033
802.84	0.034
803.28	0.033
803.71	0.037
804.15	0.036
804.58	0.037
805.02	0.037
805.46	0.032
805.89	0.034
806.33	0.038
806.76	0.032
807.20	0.037
807.63	0.036
808.07	0.037
808.51	0.037
808.94	0.036
809.38	0.035
809.81	0.035
810.25	0.035
810.68	0.037
811.12	0.035
811.55	0.036
811.99	0.036
812.42	0.036
812.86	0.036
813.29	0.035
813.73	0.038
814.17	0.028
814.60	0.033
815.04	0.033
815.47	0.034
815.91	0.031
816.34	0.036
816.78	0.038
817.21	0.040
817.65	0.036
818.08	0.034
818.52	0.035
818.95	0.038
819.39	0.040
819.82	0.035
820.25	0.036
820.69	0.037
821.12	0.042
821.56	0.037
821.99	0.038
822.43	0.036
822.86	0.040
823.30	0.035
823.73	0.036
824.17	0.039
824.60	0.035
825.04	0.037
825.47	0.036
825.90	0.036
826.34	0.037
826.77	0.037
827.21	0.041
827.64	0.037
828.08	0.041
828.51	0.040
828.94	0.041
829.38	0.039
829.81	0.039
830.25	0.043
830.68	0.041
831.11	0.044
831.55	0.041
831.98	0.042
832.42	0.043
832.85	0.043
833.28	0.043
833.72	0.043
834.15	0.045
834.58	0.043
835.02	0.041
835.45	0.045
835.88	0.045
836.32	0.047
836.75	0.045
837.19	0.046
837.62	0.043
838.05	0.045
838.49	0.043
838.92	0.040
839.35	0.044
839.79	0.041
840.22	0.041
840.65	0.044
841.09	0.048
841.52	0.048
841.95	0.045
842.39	0.043
842.82	0.048
843.25	0.046
843.68	0.047
844.12	0.046
844.55	0.044
844.98	0.048
845.42	0.043
845.85	0.044
846.28	0.047
846.71	0.045
847.15	0.044
847.58	0.045
848.01	0.042
848.45	0.039
848.88	0.041
849.31	0.041
849.74	0.046
850.18	0.045
850.61	0.050
851.04	0.046
851.47	0.043
851.91	0.042
852.34	0.045
852.77	0.048
853.20	0.045
853.64	0.045
854.07	0.044
854.50	0.046
854.93	0.041
855.36	0.046
855.80	0.049
856.23	0.049
856.66	0.046
857.09	0.053
857.52	0.049
857.96	0.049
858.39	0.047
858.82	0.043
859.25	0.050
859.68	0.052
860.12	0.048
860.55	0.044
860.98	0.049
861.41	0.046
861.84	0.049
862.27	0.048
862.71	0.051
863.14	0.051
863.57	0.047
864.00	0.050
864.43	0.043
864.86	0.048
865.30	0.049
865.73	0.048
866.16	0.050
866.59	0.053
867.02	0.048
867.45	0.047
867.88	0.050
868.31	0.050
868.75	0.048
869.18	0.051
869.61	0.053
870.04	0.050
870.47	0.051
870.90	0.055
871.33	0.051
871.76	0.046
872.19	0.045
872.62	0.054
873.06	0.055
873.49	0.050
873.92	0.055
874.35	0.053
874.78	0.062
875.21	0.050
875.64	0.058
876.07	0.059
876.50	0.051
876.93	0.055
877.36	0.057
877.79	0.055
878.22	0.045
878.65	0.053
879.08	0.058
879.51	0.052
879.94	0.052
880.37	0.053
880.80	0.051
881.23	0.056
881.67	0.052
882.10	0.055
882.53	0.054
882.96	0.059
883.39	0.059
883.82	0.056
884.25	0.058
884.68	0.053
885.11	0.058
885.54	0.058
885.97	0.054
886.39	0.052
886.82	0.057
887.25	0.058
887.68	0.056
888.11	0.056
888.54	0.058
888.97	0.054
889.40	0.058
889.83	0.059
890.26	0.059
890.69	0.056
891.12	0.057
891.55	0.057
891.98	0.057
892.41	0.060
892.84	0.062
893.27	0.058
893.70	0.063
894.13	0.057
894.56	0.064
894.98	0.062
895.41	0.061
895.84	0.066
896.27	0.058
896.70	0.064
897.13	0.057
897.56	0.061
897.99	0.061
898.42	0.063
898.85	0.059
899.27	0.062
899.70	0.066
900.13	0.062
900.56	0.066
900.99	0.065
901.42	0.060
901.85	0.064
902.28	0.067
902.70	0.061
903.13	0.065
903.56	0.069
903.99	0.061
904.42	0.064
904.85	0.064
905.27	0.068
905.70	0.068
906.13	0.066
906.56	0.069
906.99	0.065
907.42	0.063
907.84	0.066
908.27	0.068
908.70	0.062
909.13	0.064
909.56	0.062
909.98	0.069
910.41	0.064
910.84	0.065
911.27	0.062
911.70	0.064
912.12	0.063
912.55	0.064
912.98	0.063
913.41	0.065
913.84	0.062
914.26	0.062
914.69	0.061
915.12	0.067
915.55	0.061
915.97	0.066
916.40	0.067
916.83	0.063
917.26	0.065
917.68	0.067
918.11	0.069
918.54	0.069
918.97	0.065
919.39	0.067
919.82	0.068
920.25	0.066
920.67	0.065
921.10	0.068
921.53	0.066
921.96	0.069
922.38	0.070
922.81	0.072
923.24	0.072
923.66	0.068
924.09	0.068
924.52	0.073
924.94	0.070
925.37	0.075
925.80	0.076
926.22	0.073
926.65	0.077
927.08	0.071
927.50	0.077
927.93	0.076
928.36	0.079
928.78	0.079
929.21	0.080
929.64	0.077
930.06	0.083
930.49	0.085
930.92	0.080
931.34	0.082
931.77	0.081
932.20	0.082
932.62	0.082
933.05	0.081
933.47	0.084
933.90	0.086
934.33	0.089
934.75	0.089
935.18	0.091
935.61	0.088
936.03	0.090
936.46	0.094
936.88	0.096
937.31	0.099
937.73	0.103
938.16	0.100
938.59	0.103
939.01	0.108
939.44	0.107
939.86	0.105
940.29	0.110
940.71	0.115
941.14	0.113
941.57	0.112
941.99	0.119
942.42	0.113
942.84	0.117
943.27	0.117
943.69	0.122
944.12	0.125
944.54	0.123
944.97	0.127
945.39	0.128
945.82	0.132
946.24	0.126
946.67	0.133
947.09	0.140
947.52	0.137
947.94	0.144
948.37	0.140
948.79	0.145
949.22	0.150
949.64	0.151
950.07	0.149
950.49	0.157
950.92	0.156
951.34	0.162
951.77	0.168
952.19	0.158
952.62	0.167
953.04	0.164
953.47	0.175
953.89	0.175
954.32	0.179
954.74	0.183
955.17	0.183
955.59	0.184
956.01	0.193
956.44	0.190
956.86	0.190
957.29	0.200
957.71	0.204
958.14	0.201
958.56	0.205
958.98	0.206
959.41	0.203
959.83	0.214
960.26	0.212
960.68	0.215
961.10	0.215
961.53	0.216
961.95	0.222
962.38	0.221
962.80	0.219
963.22	0.223
963.65	0.222
964.07	0.219
964.50	0.221
964.92	0.224
965.34	0.230
965.77	0.227
966.19	0.221
966.61	0.228
967.04	0.230
967.46	0.227
967.88	0.230
968.31	0.226
968.73	0.227
969.15	0.229
969.58	0.230
970.00	0.234
970.42	0.238
970.85	0.230
971.27	0.235
971.69	0.231
972.12	0.230
972.54	0.230
972.96	0.235
973.39	0.238
973.81	0.234
974.23	0.239
974.65	0.234
975.08	0.243
975.50	0.235
975.92	0.239
976.35	0.232
976.77	0.232
977.19	0.232
977.61	0.238
978.04	0.232
978.46	0.235
978.88	0.236
979.30	0.238
979.73	0.236
980.15	0.234
980.57	0.233
980.99	0.233
981.42	0.235
981.84	0.240
982.26	0.241
982.68	0.240
983.11	0.235
983.53	0.231
983.95	0.237
984.37	0.231
984.79	0.233
985.22	0.233
985.64	0.237
986.06	0.225
986.48	0.235
986.90	0.226
987.33	0.229
987.75	0.234
988.17	0.231
988.59	0.228
989.01	0.222
989.43	0.227
989.86	0.226
990.28	0.223
990.70	0.224
991.12	0.228
991.54	0.235
991.96	0.224
992.39	0.220
992.81	0.226
993.23	0.222
993.65	0.220
994.07	0.222
994.49	0.215
994.91	0.221
995.34	0.219
995.76	0.224
996.18	0.225
996.60	0.209
997.02	0.216
997.44	0.221
997.86	0.218
998.28	0.206
998.70	0.218
999.12	0.213
999.55	0.215
999.97	0.207
1000.39	0.209
1000.81	0.206
1001.23	0.198
1001.65	0.206
1002.07	0.208
1002.49	0.206
1002.91	0.205
1003.33	0.205
1003.75	0.205
1004.17	0.206
1004.59	0.211
1005.01	0.204
1005.43	0.197
1005.85	0.202
1006.28	0.201
1006.70	0.199
1007.12	0.200
1007.54	0.195
1007.96	0.198
1008.38	0.193
1008.80	0.202
1009.22	0.199
1009.64	0.196
1010.06	0.194
1010.48	0.199
1010.90	0.197
1011.32	0.199
1011.74	0.185
1012.16	0.185
1012.58	0.193
1013.00	0.184
1013.42	0.180
1013.84	0.180
1014.26	0.182
1014.67	0.182
1015.09	0.179
1015.51	0.179
1015.93	0.180
1016.35	0.165
1016.77	0.177
1017.19	0.174
1017.61	0.172
1018.03	0.166
1018.45	0.178
1018.87	0.174
1019.29	0.169
1019.71	0.163
1020.13	0.165
1020.55	0.174
1020.97	0.160
1021.38	0.171
1021.80	0.164
1022.22	0.169
1022.64	0.160
1023.06	0.170
1023.48	0.162
1023.90	0.160
1024.32	0.158
1024.74	0.160
1025.15	0.172
1025.57	0.152
1025.99	0.157
1026.41	0.153
1026.83	0.166
1027.25	0.165
1027.67	0.151
1028.08	0.156
1028.50	0.156
1028.92	0.149
1029.34	0.148
1029.76	0.158
1030.18	0.147
1030.60	0.150
1031.01	0.153
1031.43	0.138
1031.85	0.155
1032.27	0.148
1032.69	0.139
1033.10	0.142
1033.52	0.147
1033.94	0.141
1034.36	0.132
1034.78	0.149
1035.19	0.135
1035.61	0.145
1036.03	0.128
1036.45	0.139
1036.87	0.150
1037.28	0.120
1037.70	0.137
1038.12	0.129
1038.54	0.129
1038.95	0.138
1039.37	0.137
1039.79	0.121
1040.21	0.131
1040.62	0.113
1041.04	0.130
1041.46	0.147
1041.88	0.135
1042.29	0.127
1042.71	0.138
1043.13	0.128
1043.55	0.138
1043.96	0.137
1044.38	0.119
1044.80	0.129
1045.21	0.117
1045.63	0.145
1046.05	0.146
1046.47	0.113
1046.88	0.127
1047.30	0.120
1047.72	0.129
1048.13	0.124
1048.55	0.138
1048.97	0.123
1049.38	0.109
1049.80	0.104
1050.22	0.118
1050.63	0.135
1051.05	0.094
1051.47	0.134
1051.88	0.121
1052.30	0.121
1052.72	0.108
1053.13	0.128
1053.55	0.110
1053.97	0.125
1054.38	0.126
1054.80	0.135
1055.21	0.133
1055.63	0.124
1056.05	0.125
1056.46	0.132
1056.88	0.112
1057.29	0.111
1057.71	0.138
1058.13	0.114
1058.54	0.112
1058.96	0.109
1059.37	0.134
1059.79	0.148
1060.21	0.115
1060.62	0.139
1061.04	0.166
1061.45	0.140
1061.87	0.144
1062.28	0.222
1062.70	0.147
1063.12	0.122
1063.53	0.128
1063.95	0.128
1064.36	0.168
1064.78	0.066
1065.19	0.177
1065.61	0.209
1066.02	0.069
1066.44	0.143
1066.85	0.161
1067.27	0.134
1067.68	0.102
1068.10	0.151
1068.51	0.144
1068.93	0.087
1069.35	0.126
1069.76	0.155
1070.17	0.192
1070.59	0.066
1071.00	0.180
1071.42	0.200
1071.83	0.196
1072.25	0.136
1072.66	0.130
1073.08	0.169
1073.49	0.196
1073.91	0.164
1074.32	0.299
1074.74	0.263
1075.15	0.192
1075.57	0.320
1075.98	0.391
1076.40	0.312
1076.81	0.204
1077.22	0.314
1077.64	0.528
1078.05	0.322
1078.47	0.165
1078.88	0.179
1079.30	0.155
1079.71	0.152
1080.12	0.319
1080.54	0.527
1080.95	0.430
1081.37	0.361
1081.78	1.127
1082.19	0.355
1082.61	0.472
1083.02	0.562
1083.44	0.429
1083.85	0.273
1084.26	0.534
1084.68	-0.000
1085.09	-0.000
1085.50	0.161
1085.92	0.723
1086.33	-0.000
1086.74	0.361
1087.16	0.385
1087.57	1.025
1087.98	0.596
1088.40	0.239
1088.81	0.788
1089.22	0.720
1089.64	0.355
1090.05	1.069
1090.46	-0.000
1090.88	-0.000
1091.29	0.521
1091.70	0.614
1092.12	0.976
1092.53	-0.000
1092.94	0.171
1093.36	0.398
1093.77	0.879
1094.18	0.426
1094.59	0.889
1095.01	-0.000
1095.42	-0.000
1095.83	1.922
1096.25	0.740
1096.66	1.693
1097.07	1.385
1097.48	0.653
1097.90	-0.000
1098.31	-0.000
1098.72	0.898
1099.13	0.319
>>>>>End Processed Spectral Data<<<<<
