SpectraSuite Data File
++++++++++++++++++++++++++++++++++++
Date: Wed May 04 15:54:56 CEST 2016
User: spectrasuite
Dark Spectrum Present: Yes
Reference Spectrum Present: Yes
Number of Sampled Component Spectra: 1
Spectrometers: HR+C0708
Integration Time (usec): 1000 (HR+C0708)
Spectra Averaged: 10 (HR+C0708)
Boxcar Smoothing: 0 (HR+C0708)
Correct for Electrical Dark: No (HR+C0708)
Strobe/Lamp Enabled: No (HR+C0708)
Correct for Detector Non-linearity: No (HR+C0708)
Correct for Stray Light: No (HR+C0708)
Number of Pixels in Processed Spectrum: 2048
>>>>>Begin Processed Spectral Data<<<<<
188.76	-0.000
189.23	-0.000
189.70	-0.000
190.17	-0.000
190.64	-0.000
191.12	-0.000
191.59	-0.000
192.06	-0.000
192.53	-0.000
193.01	-0.000
193.48	-0.000
193.95	-0.000
194.42	-0.000
194.90	-0.000
195.37	-0.000
195.84	-0.000
196.31	-0.000
196.78	-0.000
197.26	-0.000
197.73	-0.000
198.20	-0.000
198.67	-0.000
199.14	-0.000
199.62	-0.000
200.09	-0.000
200.56	-0.000
201.03	-0.000
201.50	1.238
201.97	-0.000
202.45	-0.000
202.92	1.556
203.39	-0.000
203.86	-0.000
204.33	-0.000
204.80	-0.000
205.28	-0.000
205.75	-0.000
206.22	-0.000
206.69	-0.000
207.16	-0.000
207.63	-0.000
208.11	-0.000
208.58	-0.000
209.05	-0.000
209.52	-0.000
209.99	-0.000
210.46	-0.000
210.93	-0.000
211.41	-0.000
211.88	2.702
212.35	-0.000
212.82	-0.000
213.29	2.442
213.76	-0.000
214.23	-0.000
214.70	-0.000
215.18	-0.000
215.65	0.952
216.12	-0.000
216.59	1.021
217.06	0.755
217.53	-0.000
218.00	-0.000
218.47	2.051
218.94	1.248
219.41	1.270
219.89	-0.000
220.36	0.965
220.83	1.655
221.30	-0.000
221.77	1.981
222.24	1.828
222.71	-0.000
223.18	-0.000
223.65	1.155
224.12	1.569
224.59	-0.000
225.06	-0.000
225.54	1.376
226.01	-0.000
226.48	-0.000
226.95	-0.000
227.42	-0.000
227.89	-0.000
228.36	-0.000
228.83	-0.000
229.30	-0.000
229.77	-0.000
230.24	1.689
230.71	1.607
231.18	2.619
231.65	-0.000
232.12	2.314
232.59	-0.000
233.06	-0.000
233.53	3.349
234.00	2.533
234.47	-0.000
234.94	-0.000
235.41	2.670
235.88	-0.000
236.35	-0.000
236.82	2.811
237.29	2.203
237.76	2.783
238.23	-0.000
238.70	-0.000
239.17	2.902
239.64	-0.000
240.11	-0.000
240.58	2.440
241.05	-0.000
241.52	3.294
241.99	2.719
242.46	2.813
242.93	2.708
243.40	-0.000
243.87	3.177
244.34	2.631
244.81	3.405
245.28	3.167
245.75	2.898
246.22	-0.000
246.69	-0.000
247.16	3.039
247.63	2.951
248.10	3.282
248.57	-0.000
249.04	2.827
249.51	2.936
249.98	-0.000
250.45	2.999
250.92	2.784
251.39	2.566
251.85	2.615
252.32	2.149
252.79	2.161
253.26	1.971
253.73	1.831
254.20	1.703
254.67	1.588
255.14	1.540
255.61	1.453
256.08	1.390
256.55	1.341
257.02	1.285
257.49	1.224
257.95	1.171
258.42	1.138
258.89	1.104
259.36	1.073
259.83	1.043
260.30	1.021
260.77	0.994
261.24	0.968
261.71	0.952
262.17	0.929
262.64	0.909
263.11	0.895
263.58	0.875
264.05	0.861
264.52	0.851
264.99	0.830
265.46	0.818
265.92	0.805
266.39	0.792
266.86	0.786
267.33	0.770
267.80	0.760
268.27	0.750
268.74	0.744
269.20	0.732
269.67	0.719
270.14	0.718
270.61	0.707
271.08	0.696
271.55	0.689
272.01	0.683
272.48	0.673
272.95	0.667
273.42	0.663
273.89	0.657
274.36	0.651
274.82	0.647
275.29	0.637
275.76	0.632
276.23	0.631
276.70	0.624
277.16	0.623
277.63	0.614
278.10	0.612
278.57	0.611
279.04	0.607
279.50	0.604
279.97	0.602
280.44	0.598
280.91	0.593
281.38	0.591
281.84	0.592
282.31	0.591
282.78	0.590
283.25	0.588
283.72	0.585
284.18	0.588
284.65	0.587
285.12	0.584
285.59	0.580
286.05	0.582
286.52	0.584
286.99	0.583
287.46	0.580
287.92	0.581
288.39	0.577
288.86	0.581
289.33	0.578
289.79	0.578
290.26	0.577
290.73	0.573
291.20	0.574
291.66	0.567
292.13	0.568
292.60	0.564
293.07	0.559
293.53	0.556
294.00	0.552
294.47	0.548
294.93	0.542
295.40	0.535
295.87	0.530
296.34	0.521
296.80	0.518
297.27	0.505
297.74	0.500
298.20	0.492
298.67	0.485
299.14	0.476
299.60	0.469
300.07	0.461
300.54	0.454
301.01	0.448
301.47	0.439
301.94	0.432
302.41	0.426
302.87	0.415
303.34	0.413
303.81	0.405
304.27	0.399
304.74	0.389
305.21	0.383
305.67	0.376
306.14	0.370
306.61	0.367
307.07	0.358
307.54	0.357
308.01	0.349
308.47	0.346
308.94	0.340
309.40	0.337
309.87	0.336
310.34	0.332
310.80	0.324
311.27	0.323
311.74	0.320
312.20	0.317
312.67	0.313
313.13	0.310
313.60	0.309
314.07	0.306
314.53	0.303
315.00	0.299
315.47	0.299
315.93	0.300
316.40	0.294
316.86	0.292
317.33	0.290
317.80	0.290
318.26	0.287
318.73	0.286
319.19	0.288
319.66	0.285
320.13	0.280
320.59	0.282
321.06	0.283
321.52	0.279
321.99	0.279
322.45	0.275
322.92	0.275
323.39	0.273
323.85	0.272
324.32	0.273
324.78	0.270
325.25	0.268
325.71	0.266
326.18	0.264
326.64	0.264
327.11	0.262
327.58	0.260
328.04	0.260
328.51	0.259
328.97	0.256
329.44	0.254
329.90	0.254
330.37	0.250
330.83	0.250
331.30	0.248
331.76	0.246
332.23	0.245
332.69	0.243
333.16	0.244
333.62	0.238
334.09	0.237
334.56	0.235
335.02	0.234
335.49	0.230
335.95	0.226
336.42	0.229
336.88	0.224
337.35	0.222
337.81	0.222
338.28	0.225
338.74	0.223
339.20	0.220
339.67	0.221
340.13	0.221
340.60	0.220
341.06	0.214
341.53	0.211
341.99	0.212
342.46	0.209
342.92	0.209
343.39	0.206
343.85	0.204
344.32	0.203
344.78	0.202
345.25	0.210
345.71	0.204
346.17	0.205
346.64	0.207
347.10	0.206
347.57	0.202
348.03	0.199
348.50	0.196
348.96	0.198
349.43	0.197
349.89	0.200
350.35	0.201
350.82	0.195
351.28	0.197
351.75	0.197
352.21	0.198
352.67	0.192
353.14	0.198
353.60	0.193
354.07	0.189
354.53	0.193
355.00	0.189
355.46	0.186
355.92	0.184
356.39	0.187
356.85	0.183
357.31	0.179
357.78	0.181
358.24	0.181
358.71	0.181
359.17	0.181
359.63	0.178
360.10	0.178
360.56	0.176
361.03	0.175
361.49	0.177
361.95	0.176
362.42	0.175
362.88	0.178
363.34	0.179
363.81	0.175
364.27	0.173
364.73	0.176
365.20	0.173
365.66	0.171
366.12	0.172
366.59	0.174
367.05	0.174
367.51	0.173
367.98	0.172
368.44	0.171
368.90	0.171
369.37	0.171
369.83	0.169
370.29	0.166
370.76	0.168
371.22	0.169
371.68	0.167
372.15	0.166
372.61	0.162
373.07	0.168
373.54	0.164
374.00	0.164
374.46	0.165
374.92	0.165
375.39	0.166
375.85	0.165
376.31	0.165
376.78	0.163
377.24	0.162
377.70	0.163
378.16	0.164
378.63	0.164
379.09	0.164
379.55	0.165
380.01	0.164
380.48	0.162
380.94	0.164
381.40	0.164
381.87	0.165
382.33	0.159
382.79	0.158
383.25	0.161
383.72	0.162
384.18	0.162
384.64	0.162
385.10	0.158
385.56	0.158
386.03	0.161
386.49	0.159
386.95	0.162
387.41	0.159
387.88	0.157
388.34	0.155
388.80	0.160
389.26	0.159
389.72	0.159
390.19	0.157
390.65	0.157
391.11	0.157
391.57	0.157
392.04	0.156
392.50	0.156
392.96	0.157
393.42	0.157
393.88	0.159
394.34	0.154
394.81	0.157
395.27	0.158
395.73	0.152
396.19	0.154
396.65	0.152
397.12	0.153
397.58	0.152
398.04	0.152
398.50	0.153
398.96	0.154
399.42	0.154
399.89	0.155
400.35	0.155
400.81	0.149
401.27	0.154
401.73	0.151
402.19	0.150
402.65	0.148
403.12	0.150
403.58	0.149
404.04	0.147
404.50	0.147
404.96	0.149
405.42	0.149
405.88	0.147
406.34	0.151
406.81	0.149
407.27	0.147
407.73	0.143
408.19	0.147
408.65	0.143
409.11	0.144
409.57	0.144
410.03	0.145
410.49	0.147
410.96	0.143
411.42	0.144
411.88	0.143
412.34	0.138
412.80	0.140
413.26	0.143
413.72	0.141
414.18	0.140
414.64	0.144
415.10	0.142
415.56	0.141
416.02	0.141
416.48	0.140
416.95	0.141
417.41	0.139
417.87	0.138
418.33	0.140
418.79	0.138
419.25	0.139
419.71	0.140
420.17	0.136
420.63	0.136
421.09	0.136
421.55	0.136
422.01	0.136
422.47	0.143
422.93	0.142
423.39	0.138
423.85	0.138
424.31	0.137
424.77	0.140
425.23	0.135
425.69	0.141
426.15	0.141
426.61	0.141
427.07	0.134
427.53	0.136
427.99	0.136
428.45	0.139
428.91	0.135
429.37	0.133
429.83	0.132
430.29	0.136
430.75	0.139
431.21	0.140
431.67	0.145
432.13	0.139
432.59	0.135
433.05	0.137
433.51	0.133
433.97	0.132
434.43	0.140
434.89	0.140
435.35	0.134
435.81	0.136
436.27	0.138
436.73	0.135
437.19	0.138
437.65	0.136
438.11	0.136
438.57	0.136
439.03	0.136
439.48	0.137
439.94	0.137
440.40	0.135
440.86	0.132
441.32	0.135
441.78	0.132
442.24	0.136
442.70	0.138
443.16	0.132
443.62	0.134
444.08	0.129
444.54	0.134
444.99	0.134
445.45	0.130
445.91	0.132
446.37	0.131
446.83	0.131
447.29	0.131
447.75	0.131
448.21	0.136
448.67	0.132
449.12	0.132
449.58	0.132
450.04	0.132
450.50	0.131
450.96	0.130
451.42	0.133
451.88	0.132
452.34	0.132
452.79	0.135
453.25	0.133
453.71	0.134
454.17	0.134
454.63	0.134
455.09	0.131
455.55	0.129
456.00	0.128
456.46	0.128
456.92	0.130
457.38	0.130
457.84	0.133
458.30	0.130
458.75	0.128
459.21	0.127
459.67	0.128
460.13	0.130
460.59	0.129
461.04	0.131
461.50	0.128
461.96	0.130
462.42	0.128
462.88	0.127
463.33	0.128
463.79	0.128
464.25	0.128
464.71	0.129
465.17	0.129
465.62	0.128
466.08	0.131
466.54	0.132
467.00	0.131
467.46	0.130
467.91	0.131
468.37	0.129
468.83	0.131
469.29	0.133
469.74	0.130
470.20	0.130
470.66	0.130
471.12	0.131
471.57	0.130
472.03	0.132
472.49	0.129
472.95	0.130
473.40	0.130
473.86	0.129
474.32	0.128
474.78	0.129
475.23	0.130
475.69	0.131
476.15	0.132
476.60	0.130
477.06	0.130
477.52	0.130
477.98	0.128
478.43	0.131
478.89	0.130
479.35	0.132
479.80	0.130
480.26	0.128
480.72	0.129
481.18	0.128
481.63	0.129
482.09	0.129
482.55	0.127
483.00	0.126
483.46	0.130
483.92	0.129
484.37	0.128
484.83	0.127
485.29	0.129
485.74	0.126
486.20	0.127
486.66	0.129
487.11	0.128
487.57	0.127
488.03	0.127
488.48	0.129
488.94	0.128
489.40	0.127
489.85	0.129
490.31	0.128
490.77	0.127
491.22	0.128
491.68	0.126
492.13	0.128
492.59	0.129
493.05	0.127
493.50	0.127
493.96	0.126
494.42	0.129
494.87	0.130
495.33	0.125
495.78	0.127
496.24	0.128
496.70	0.128
497.15	0.126
497.61	0.128
498.06	0.127
498.52	0.126
498.98	0.127
499.43	0.125
499.89	0.127
500.34	0.126
500.80	0.127
501.25	0.127
501.71	0.126
502.17	0.125
502.62	0.124
503.08	0.123
503.53	0.124
503.99	0.125
504.44	0.125
504.90	0.123
505.36	0.125
505.81	0.126
506.27	0.124
506.72	0.125
507.18	0.125
507.63	0.124
508.09	0.124
508.54	0.123
509.00	0.125
509.45	0.124
509.91	0.124
510.36	0.126
510.82	0.125
511.27	0.125
511.73	0.124
512.19	0.126
512.64	0.122
513.10	0.124
513.55	0.125
514.01	0.126
514.46	0.125
514.92	0.123
515.37	0.124
515.83	0.122
516.28	0.123
516.73	0.124
517.19	0.123
517.64	0.124
518.10	0.123
518.55	0.124
519.01	0.124
519.46	0.122
519.92	0.122
520.37	0.118
520.83	0.122
521.28	0.121
521.74	0.122
522.19	0.122
522.65	0.121
523.10	0.120
523.55	0.122
524.01	0.121
524.46	0.122
524.92	0.123
525.37	0.123
525.83	0.122
526.28	0.124
526.73	0.122
527.19	0.122
527.64	0.121
528.10	0.124
528.55	0.123
529.01	0.122
529.46	0.121
529.91	0.123
530.37	0.121
530.82	0.122
531.28	0.124
531.73	0.125
532.18	0.126
532.64	0.124
533.09	0.125
533.54	0.122
534.00	0.123
534.45	0.125
534.91	0.123
535.36	0.123
535.81	0.123
536.27	0.122
536.72	0.123
537.17	0.123
537.63	0.124
538.08	0.127
538.54	0.125
538.99	0.129
539.44	0.123
539.90	0.126
540.35	0.125
540.80	0.123
541.26	0.127
541.71	0.130
542.16	0.127
542.62	0.130
543.07	0.127
543.52	0.126
543.98	0.126
544.43	0.127
544.88	0.127
545.34	0.130
545.79	0.129
546.24	0.128
546.69	0.127
547.15	0.128
547.60	0.131
548.05	0.129
548.51	0.130
548.96	0.130
549.41	0.131
549.86	0.131
550.32	0.133
550.77	0.132
551.22	0.131
551.68	0.130
552.13	0.132
552.58	0.132
553.03	0.134
553.49	0.134
553.94	0.130
554.39	0.133
554.84	0.135
555.30	0.134
555.75	0.135
556.20	0.135
556.65	0.137
557.11	0.138
557.56	0.139
558.01	0.139
558.46	0.137
558.92	0.141
559.37	0.142
559.82	0.140
560.27	0.140
560.72	0.141
561.18	0.141
561.63	0.140
562.08	0.143
562.53	0.141
562.99	0.143
563.44	0.144
563.89	0.145
564.34	0.145
564.79	0.147
565.25	0.146
565.70	0.149
566.15	0.145
566.60	0.149
567.05	0.148
567.50	0.149
567.96	0.150
568.41	0.151
568.86	0.149
569.31	0.151
569.76	0.150
570.21	0.153
570.67	0.150
571.12	0.152
571.57	0.155
572.02	0.156
572.47	0.157
572.92	0.156
573.37	0.159
573.83	0.158
574.28	0.158
574.73	0.157
575.18	0.162
575.63	0.159
576.08	0.161
576.53	0.161
576.98	0.164
577.44	0.165
577.89	0.163
578.34	0.167
578.79	0.166
579.24	0.166
579.69	0.166
580.14	0.168
580.59	0.171
581.04	0.171
581.49	0.172
581.95	0.173
582.40	0.174
582.85	0.177
583.30	0.179
583.75	0.179
584.20	0.179
584.65	0.182
585.10	0.183
585.55	0.183
586.00	0.183
586.45	0.186
586.90	0.188
587.35	0.190
587.80	0.190
588.25	0.192
588.71	0.195
589.16	0.195
589.61	0.195
590.06	0.198
590.51	0.199
590.96	0.202
591.41	0.205
591.86	0.205
592.31	0.206
592.76	0.207
593.21	0.208
593.66	0.211
594.11	0.214
594.56	0.214
595.01	0.217
595.46	0.216
595.91	0.221
596.36	0.221
596.81	0.225
597.26	0.225
597.71	0.227
598.16	0.229
598.61	0.231
599.06	0.232
599.51	0.234
599.96	0.236
600.41	0.235
600.86	0.241
601.31	0.239
601.76	0.244
602.21	0.247
602.65	0.248
603.10	0.250
603.55	0.248
604.00	0.254
604.45	0.255
604.90	0.254
605.35	0.258
605.80	0.257
606.25	0.260
606.70	0.261
607.15	0.263
607.60	0.263
608.05	0.265
608.50	0.268
608.95	0.268
609.39	0.269
609.84	0.271
610.29	0.273
610.74	0.272
611.19	0.272
611.64	0.273
612.09	0.276
612.54	0.277
612.99	0.278
613.44	0.278
613.88	0.280
614.33	0.278
614.78	0.283
615.23	0.283
615.68	0.282
616.13	0.282
616.58	0.283
617.03	0.287
617.47	0.283
617.92	0.286
618.37	0.286
618.82	0.288
619.27	0.288
619.72	0.288
620.17	0.289
620.61	0.288
621.06	0.288
621.51	0.290
621.96	0.289
622.41	0.289
622.86	0.288
623.30	0.294
623.75	0.293
624.20	0.294
624.65	0.295
625.10	0.295
625.54	0.294
625.99	0.294
626.44	0.298
626.89	0.297
627.34	0.301
627.78	0.302
628.23	0.301
628.68	0.302
629.13	0.300
629.58	0.305
630.02	0.306
630.47	0.310
630.92	0.308
631.37	0.313
631.81	0.312
632.26	0.313
632.71	0.315
633.16	0.319
633.61	0.317
634.05	0.321
634.50	0.320
634.95	0.327
635.40	0.326
635.84	0.327
636.29	0.331
636.74	0.335
637.18	0.336
637.63	0.338
638.08	0.339
638.53	0.341
638.97	0.341
639.42	0.349
639.87	0.348
640.32	0.352
640.76	0.353
641.21	0.358
641.66	0.358
642.10	0.361
642.55	0.363
643.00	0.365
643.44	0.369
643.89	0.372
644.34	0.377
644.79	0.379
645.23	0.382
645.68	0.383
646.13	0.388
646.57	0.390
647.02	0.393
647.47	0.398
647.91	0.399
648.36	0.401
648.81	0.402
649.25	0.407
649.70	0.409
650.15	0.412
650.59	0.418
651.04	0.418
651.48	0.420
651.93	0.422
652.38	0.428
652.82	0.430
653.27	0.428
653.72	0.432
654.16	0.432
654.61	0.436
655.06	0.438
655.50	0.442
655.95	0.438
656.39	0.441
656.84	0.451
657.29	0.454
657.73	0.452
658.18	0.451
658.62	0.455
659.07	0.459
659.52	0.458
659.96	0.462
660.41	0.459
660.85	0.462
661.30	0.461
661.74	0.463
662.19	0.467
662.64	0.466
663.08	0.466
663.53	0.467
663.97	0.465
664.42	0.464
664.86	0.465
665.31	0.468
665.75	0.463
666.20	0.463
666.65	0.464
667.09	0.464
667.54	0.461
667.98	0.461
668.43	0.458
668.87	0.456
669.32	0.456
669.76	0.449
670.21	0.447
670.65	0.445
671.10	0.440
671.54	0.436
671.99	0.433
672.43	0.428
672.88	0.424
673.32	0.420
673.77	0.411
674.21	0.412
674.66	0.404
675.10	0.398
675.55	0.389
675.99	0.384
676.44	0.377
676.88	0.370
677.33	0.364
677.77	0.357
678.22	0.350
678.66	0.342
679.11	0.335
679.55	0.328
679.99	0.322
680.44	0.314
680.88	0.305
681.33	0.299
681.77	0.293
682.22	0.283
682.66	0.278
683.11	0.270
683.55	0.266
683.99	0.259
684.44	0.253
684.88	0.244
685.33	0.237
685.77	0.230
686.21	0.226
686.66	0.219
687.10	0.214
687.55	0.208
687.99	0.202
688.44	0.197
688.88	0.189
689.32	0.188
689.77	0.182
690.21	0.178
690.65	0.172
691.10	0.169
691.54	0.165
691.99	0.161
692.43	0.158
692.87	0.155
693.32	0.150
693.76	0.146
694.20	0.143
694.65	0.141
695.09	0.137
695.53	0.135
695.98	0.133
696.42	0.133
696.86	0.129
697.31	0.127
697.75	0.124
698.19	0.124
698.64	0.118
699.08	0.121
699.52	0.115
699.97	0.114
700.41	0.113
700.85	0.113
701.30	0.108
701.74	0.109
702.18	0.106
702.63	0.106
703.07	0.103
703.51	0.104
703.96	0.104
704.40	0.101
704.84	0.101
705.28	0.099
705.73	0.100
706.17	0.097
706.61	0.100
707.06	0.096
707.50	0.097
707.94	0.095
708.38	0.095
708.83	0.094
709.27	0.093
709.71	0.093
710.15	0.092
710.60	0.095
711.04	0.090
711.48	0.092
711.92	0.094
712.37	0.089
712.81	0.091
713.25	0.092
713.69	0.091
714.13	0.089
714.58	0.089
715.02	0.087
715.46	0.086
715.90	0.088
716.35	0.088
716.79	0.087
717.23	0.089
717.67	0.090
718.11	0.087
718.56	0.087
719.00	0.088
719.44	0.087
719.88	0.089
720.32	0.089
720.76	0.086
721.21	0.088
721.65	0.086
722.09	0.087
722.53	0.087
722.97	0.087
723.41	0.086
723.86	0.087
724.30	0.087
724.74	0.089
725.18	0.085
725.62	0.086
726.06	0.089
726.50	0.091
726.95	0.089
727.39	0.088
727.83	0.089
728.27	0.088
728.71	0.088
729.15	0.087
729.59	0.084
730.03	0.087
730.48	0.087
730.92	0.091
731.36	0.087
731.80	0.088
732.24	0.091
732.68	0.089
733.12	0.089
733.56	0.091
734.00	0.091
734.44	0.089
734.89	0.090
735.33	0.085
735.77	0.089
736.21	0.090
736.65	0.087
737.09	0.093
737.53	0.092
737.97	0.090
738.41	0.090
738.85	0.089
739.29	0.089
739.73	0.091
740.17	0.091
740.61	0.089
741.05	0.094
741.49	0.091
741.93	0.090
742.37	0.091
742.81	0.090
743.26	0.091
743.70	0.089
744.14	0.088
744.58	0.092
745.02	0.090
745.46	0.091
745.90	0.089
746.34	0.089
746.78	0.091
747.22	0.087
747.66	0.087
748.10	0.090
748.54	0.090
748.98	0.090
749.42	0.090
749.86	0.093
750.29	0.090
750.73	0.090
751.17	0.090
751.61	0.092
752.05	0.089
752.49	0.089
752.93	0.086
753.37	0.091
753.81	0.090
754.25	0.089
754.69	0.091
755.13	0.091
755.57	0.088
756.01	0.087
756.45	0.086
756.89	0.089
757.33	0.088
757.77	0.091
758.21	0.088
758.64	0.088
759.08	0.089
759.52	0.087
759.96	0.088
760.40	0.088
760.84	0.086
761.28	0.087
761.72	0.090
762.16	0.087
762.60	0.085
763.03	0.089
763.47	0.087
763.91	0.088
764.35	0.085
764.79	0.090
765.23	0.087
765.67	0.086
766.11	0.088
766.54	0.087
766.98	0.086
767.42	0.088
767.86	0.090
768.30	0.088
768.74	0.088
769.17	0.087
769.61	0.086
770.05	0.089
770.49	0.090
770.93	0.088
771.37	0.089
771.80	0.083
772.24	0.085
772.68	0.087
773.12	0.086
773.56	0.089
774.00	0.086
774.43	0.086
774.87	0.085
775.31	0.086
775.75	0.086
776.19	0.088
776.62	0.088
777.06	0.087
777.50	0.086
777.94	0.086
778.37	0.089
778.81	0.087
779.25	0.087
779.69	0.086
780.13	0.085
780.56	0.085
781.00	0.086
781.44	0.087
781.88	0.088
782.31	0.085
782.75	0.083
783.19	0.085
783.63	0.085
784.06	0.087
784.50	0.087
784.94	0.088
785.37	0.085
785.81	0.086
786.25	0.085
786.69	0.086
787.12	0.087
787.56	0.086
788.00	0.086
788.43	0.086
788.87	0.088
789.31	0.088
789.75	0.088
790.18	0.089
790.62	0.088
791.06	0.087
791.49	0.088
791.93	0.085
792.37	0.083
792.80	0.089
793.24	0.087
793.68	0.088
794.11	0.091
794.55	0.089
794.99	0.086
795.42	0.088
795.86	0.090
796.30	0.088
796.73	0.085
797.17	0.084
797.61	0.085
798.04	0.088
798.48	0.085
798.91	0.087
799.35	0.086
799.79	0.085
800.22	0.084
800.66	0.086
801.10	0.089
801.53	0.091
801.97	0.088
802.40	0.084
802.84	0.089
803.28	0.085
803.71	0.087
804.15	0.089
804.58	0.089
805.02	0.087
805.46	0.085
805.89	0.086
806.33	0.088
806.76	0.085
807.20	0.089
807.63	0.090
808.07	0.088
808.51	0.089
808.94	0.089
809.38	0.085
809.81	0.090
810.25	0.085
810.68	0.088
811.12	0.084
811.55	0.088
811.99	0.089
812.42	0.087
812.86	0.087
813.29	0.089
813.73	0.090
814.17	0.082
814.60	0.083
815.04	0.081
815.47	0.086
815.91	0.081
816.34	0.087
816.78	0.089
817.21	0.089
817.65	0.088
818.08	0.088
818.52	0.084
818.95	0.087
819.39	0.085
819.82	0.085
820.25	0.088
820.69	0.085
821.12	0.093
821.56	0.087
821.99	0.088
822.43	0.086
822.86	0.086
823.30	0.085
823.73	0.085
824.17	0.089
824.60	0.092
825.04	0.089
825.47	0.089
825.90	0.085
826.34	0.091
826.77	0.089
827.21	0.089
827.64	0.091
828.08	0.094
828.51	0.091
828.94	0.092
829.38	0.089
829.81	0.090
830.25	0.094
830.68	0.090
831.11	0.092
831.55	0.094
831.98	0.096
832.42	0.095
832.85	0.096
833.28	0.096
833.72	0.096
834.15	0.099
834.58	0.093
835.02	0.090
835.45	0.099
835.88	0.096
836.32	0.095
836.75	0.096
837.19	0.100
837.62	0.092
838.05	0.096
838.49	0.095
838.92	0.097
839.35	0.097
839.79	0.092
840.22	0.096
840.65	0.098
841.09	0.096
841.52	0.097
841.95	0.096
842.39	0.096
842.82	0.105
843.25	0.098
843.68	0.094
844.12	0.099
844.55	0.096
844.98	0.099
845.42	0.093
845.85	0.096
846.28	0.100
846.71	0.094
847.15	0.093
847.58	0.102
848.01	0.097
848.45	0.096
848.88	0.096
849.31	0.093
849.74	0.098
850.18	0.096
850.61	0.099
851.04	0.098
851.47	0.099
851.91	0.093
852.34	0.096
852.77	0.099
853.20	0.098
853.64	0.102
854.07	0.103
854.50	0.099
854.93	0.093
855.36	0.101
855.80	0.100
856.23	0.100
856.66	0.095
857.09	0.101
857.52	0.099
857.96	0.099
858.39	0.102
858.82	0.099
859.25	0.100
859.68	0.101
860.12	0.097
860.55	0.098
860.98	0.105
861.41	0.103
861.84	0.100
862.27	0.105
862.71	0.108
863.14	0.104
863.57	0.102
864.00	0.100
864.43	0.100
864.86	0.102
865.30	0.104
865.73	0.101
866.16	0.102
866.59	0.109
867.02	0.098
867.45	0.098
867.88	0.106
868.31	0.109
868.75	0.100
869.18	0.103
869.61	0.107
870.04	0.104
870.47	0.103
870.90	0.106
871.33	0.105
871.76	0.101
872.19	0.097
872.62	0.106
873.06	0.106
873.49	0.103
873.92	0.104
874.35	0.107
874.78	0.112
875.21	0.100
875.64	0.108
876.07	0.113
876.50	0.105
876.93	0.106
877.36	0.110
877.79	0.107
878.22	0.096
878.65	0.108
879.08	0.110
879.51	0.102
879.94	0.105
880.37	0.107
880.80	0.103
881.23	0.105
881.67	0.108
882.10	0.108
882.53	0.107
882.96	0.110
883.39	0.115
883.82	0.110
884.25	0.109
884.68	0.109
885.11	0.112
885.54	0.109
885.97	0.103
886.39	0.106
886.82	0.107
887.25	0.107
887.68	0.106
888.11	0.106
888.54	0.109
888.97	0.106
889.40	0.107
889.83	0.109
890.26	0.112
890.69	0.107
891.12	0.107
891.55	0.108
891.98	0.108
892.41	0.109
892.84	0.115
893.27	0.109
893.70	0.105
894.13	0.107
894.56	0.108
894.98	0.110
895.41	0.108
895.84	0.118
896.27	0.107
896.70	0.109
897.13	0.108
897.56	0.112
897.99	0.108
898.42	0.115
898.85	0.117
899.27	0.112
899.70	0.113
900.13	0.112
900.56	0.113
900.99	0.113
901.42	0.104
901.85	0.110
902.28	0.113
902.70	0.111
903.13	0.108
903.56	0.119
903.99	0.109
904.42	0.113
904.85	0.111
905.27	0.113
905.70	0.110
906.13	0.109
906.56	0.112
906.99	0.112
907.42	0.107
907.84	0.111
908.27	0.116
908.70	0.111
909.13	0.109
909.56	0.110
909.98	0.113
910.41	0.107
910.84	0.110
911.27	0.109
911.70	0.109
912.12	0.107
912.55	0.109
912.98	0.107
913.41	0.109
913.84	0.108
914.26	0.109
914.69	0.107
915.12	0.108
915.55	0.107
915.97	0.112
916.40	0.112
916.83	0.110
917.26	0.110
917.68	0.114
918.11	0.113
918.54	0.113
918.97	0.109
919.39	0.112
919.82	0.112
920.25	0.110
920.67	0.109
921.10	0.111
921.53	0.110
921.96	0.112
922.38	0.119
922.81	0.113
923.24	0.116
923.66	0.117
924.09	0.115
924.52	0.117
924.94	0.118
925.37	0.122
925.80	0.115
926.22	0.120
926.65	0.119
927.08	0.117
927.50	0.120
927.93	0.123
928.36	0.126
928.78	0.126
929.21	0.123
929.64	0.126
930.06	0.127
930.49	0.128
930.92	0.123
931.34	0.126
931.77	0.128
932.20	0.128
932.62	0.129
933.05	0.127
933.47	0.135
933.90	0.130
934.33	0.136
934.75	0.134
935.18	0.133
935.61	0.139
936.03	0.141
936.46	0.141
936.88	0.146
937.31	0.147
937.73	0.153
938.16	0.149
938.59	0.151
939.01	0.156
939.44	0.157
939.86	0.156
940.29	0.159
940.71	0.163
941.14	0.158
941.57	0.165
941.99	0.170
942.42	0.171
942.84	0.175
943.27	0.173
943.69	0.173
944.12	0.180
944.54	0.182
944.97	0.176
945.39	0.184
945.82	0.183
946.24	0.183
946.67	0.193
947.09	0.189
947.52	0.193
947.94	0.196
948.37	0.191
948.79	0.194
949.22	0.197
949.64	0.210
950.07	0.204
950.49	0.205
950.92	0.209
951.34	0.215
951.77	0.214
952.19	0.211
952.62	0.215
953.04	0.222
953.47	0.227
953.89	0.230
954.32	0.230
954.74	0.233
955.17	0.234
955.59	0.238
956.01	0.245
956.44	0.246
956.86	0.243
957.29	0.253
957.71	0.255
958.14	0.257
958.56	0.256
958.98	0.259
959.41	0.254
959.83	0.259
960.26	0.267
960.68	0.266
961.10	0.267
961.53	0.269
961.95	0.275
962.38	0.270
962.80	0.269
963.22	0.273
963.65	0.275
964.07	0.272
964.50	0.274
964.92	0.280
965.34	0.282
965.77	0.276
966.19	0.276
966.61	0.275
967.04	0.282
967.46	0.275
967.88	0.280
968.31	0.283
968.73	0.274
969.15	0.283
969.58	0.284
970.00	0.283
970.42	0.286
970.85	0.280
971.27	0.282
971.69	0.280
972.12	0.281
972.54	0.279
972.96	0.280
973.39	0.282
973.81	0.287
974.23	0.284
974.65	0.285
975.08	0.284
975.50	0.284
975.92	0.284
976.35	0.281
976.77	0.286
977.19	0.286
977.61	0.279
978.04	0.283
978.46	0.278
978.88	0.280
979.30	0.278
979.73	0.284
980.15	0.294
980.57	0.286
980.99	0.288
981.42	0.279
981.84	0.288
982.26	0.285
982.68	0.279
983.11	0.290
983.53	0.287
983.95	0.283
984.37	0.279
984.79	0.280
985.22	0.279
985.64	0.284
986.06	0.274
986.48	0.282
986.90	0.278
987.33	0.281
987.75	0.276
988.17	0.278
988.59	0.275
989.01	0.268
989.43	0.273
989.86	0.274
990.28	0.272
990.70	0.268
991.12	0.276
991.54	0.273
991.96	0.275
992.39	0.264
992.81	0.270
993.23	0.270
993.65	0.270
994.07	0.268
994.49	0.271
994.91	0.264
995.34	0.269
995.76	0.262
996.18	0.265
996.60	0.262
997.02	0.262
997.44	0.265
997.86	0.262
998.28	0.255
998.70	0.257
999.12	0.260
999.55	0.264
999.97	0.259
1000.39	0.261
1000.81	0.260
1001.23	0.252
1001.65	0.260
1002.07	0.254
1002.49	0.253
1002.91	0.250
1003.33	0.254
1003.75	0.253
1004.17	0.252
1004.59	0.259
1005.01	0.250
1005.43	0.247
1005.85	0.249
1006.28	0.242
1006.70	0.249
1007.12	0.255
1007.54	0.249
1007.96	0.250
1008.38	0.249
1008.80	0.245
1009.22	0.242
1009.64	0.243
1010.06	0.239
1010.48	0.245
1010.90	0.246
1011.32	0.249
1011.74	0.241
1012.16	0.238
1012.58	0.248
1013.00	0.236
1013.42	0.227
1013.84	0.226
1014.26	0.233
1014.67	0.237
1015.09	0.228
1015.51	0.224
1015.93	0.238
1016.35	0.222
1016.77	0.227
1017.19	0.229
1017.61	0.212
1018.03	0.217
1018.45	0.223
1018.87	0.228
1019.29	0.214
1019.71	0.216
1020.13	0.224
1020.55	0.231
1020.97	0.207
1021.38	0.224
1021.80	0.217
1022.22	0.221
1022.64	0.222
1023.06	0.226
1023.48	0.215
1023.90	0.213
1024.32	0.206
1024.74	0.211
1025.15	0.219
1025.57	0.208
1025.99	0.212
1026.41	0.226
1026.83	0.214
1027.25	0.206
1027.67	0.223
1028.08	0.216
1028.50	0.201
1028.92	0.208
1029.34	0.209
1029.76	0.212
1030.18	0.202
1030.60	0.212
1031.01	0.213
1031.43	0.192
1031.85	0.213
1032.27	0.193
1032.69	0.202
1033.10	0.202
1033.52	0.198
1033.94	0.200
1034.36	0.224
1034.78	0.202
1035.19	0.204
1035.61	0.205
1036.03	0.175
1036.45	0.192
1036.87	0.217
1037.28	0.210
1037.70	0.191
1038.12	0.196
1038.54	0.196
1038.95	0.190
1039.37	0.199
1039.79	0.194
1040.21	0.208
1040.62	0.173
1041.04	0.202
1041.46	0.210
1041.88	0.202
1042.29	0.181
1042.71	0.189
1043.13	0.193
1043.55	0.212
1043.96	0.191
1044.38	0.200
1044.80	0.218
1045.21	0.168
1045.63	0.194
1046.05	0.225
1046.47	0.189
1046.88	0.203
1047.30	0.191
1047.72	0.194
1048.13	0.178
1048.55	0.224
1048.97	0.211
1049.38	0.204
1049.80	0.175
1050.22	0.197
1050.63	0.210
1051.05	0.170
1051.47	0.209
1051.88	0.204
1052.30	0.222
1052.72	0.177
1053.13	0.221
1053.55	0.214
1053.97	0.219
1054.38	0.213
1054.80	0.219
1055.21	0.185
1055.63	0.185
1056.05	0.189
1056.46	0.235
1056.88	0.240
1057.29	0.204
1057.71	0.262
1058.13	0.275
1058.54	0.214
1058.96	0.212
1059.37	0.264
1059.79	0.314
1060.21	0.193
1060.62	0.232
1061.04	0.294
1061.45	0.250
1061.87	0.260
1062.28	0.256
1062.70	0.281
1063.12	0.281
1063.53	0.291
1063.95	0.379
1064.36	0.326
1064.78	0.271
1065.19	0.293
1065.61	0.399
1066.02	0.273
1066.44	0.332
1066.85	0.407
1067.27	0.332
1067.68	0.284
1068.10	0.390
1068.51	0.349
1068.93	0.382
1069.35	0.332
1069.76	0.393
1070.17	0.493
1070.59	0.228
1071.00	0.478
1071.42	0.644
1071.83	0.532
1072.25	0.648
1072.66	0.726
1073.08	0.715
1073.49	0.669
1073.91	0.659
1074.32	-0.000
1074.74	-0.000
1075.15	0.889
1075.57	1.210
1075.98	-0.000
1076.40	0.992
1076.81	0.892
1077.22	-0.000
1077.64	-0.000
1078.05	0.591
1078.47	-0.000
1078.88	-0.000
1079.30	0.867
1079.71	-0.000
1080.12	-0.000
1080.54	-0.000
1080.95	-0.000
1081.37	-0.000
1081.78	-0.000
1082.19	-0.000
1082.61	-0.000
1083.02	-0.000
1083.44	-0.000
1083.85	-0.000
1084.26	-0.000
1084.68	-0.000
1085.09	-0.000
1085.50	-0.000
1085.92	-0.000
1086.33	-0.000
1086.74	-0.000
1087.16	-0.000
1087.57	-0.000
1087.98	-0.000
1088.40	-0.000
1088.81	-0.000
1089.22	-0.000
1089.64	-0.000
1090.05	-0.000
1090.46	-0.000
1090.88	-0.000
1091.29	-0.000
1091.70	-0.000
1092.12	-0.000
1092.53	-0.000
1092.94	-0.000
1093.36	-0.000
1093.77	-0.000
1094.18	-0.000
1094.59	-0.000
1095.01	-0.000
1095.42	-0.000
1095.83	-0.000
1096.25	-0.000
1096.66	-0.000
1097.07	-0.000
1097.48	-0.000
1097.90	-0.000
1098.31	-0.000
1098.72	-0.000
1099.13	-0.000
>>>>>End Processed Spectral Data<<<<<
