SpectraSuite Data File
++++++++++++++++++++++++++++++++++++
Date: Wed May 04 13:16:44 CEST 2016
User: spectrasuite
Dark Spectrum Present: Yes
Reference Spectrum Present: Yes
Number of Sampled Component Spectra: 1
Spectrometers: HR+C0708
Integration Time (usec): 1000 (HR+C0708)
Spectra Averaged: 10 (HR+C0708)
Boxcar Smoothing: 0 (HR+C0708)
Correct for Electrical Dark: No (HR+C0708)
Strobe/Lamp Enabled: No (HR+C0708)
Correct for Detector Non-linearity: No (HR+C0708)
Correct for Stray Light: No (HR+C0708)
Number of Pixels in Processed Spectrum: 2048
>>>>>Begin Processed Spectral Data<<<<<
188.76	0.544
189.23	-0.000
189.70	0.503
190.17	0.137
190.64	-0.000
191.12	-0.000
191.59	-0.938
192.06	-0.000
192.53	-0.000
193.01	-0.000
193.48	1.016
193.95	-0.000
194.42	-0.000
194.90	0.442
195.37	1.030
195.84	-0.000
196.31	0.903
196.78	0.335
197.26	-0.000
197.73	-0.000
198.20	0.214
198.67	-0.000
199.14	1.227
199.62	-0.000
200.09	-0.000
200.56	0.441
201.03	1.371
201.50	0.545
201.97	0.411
202.45	1.353
202.92	0.741
203.39	0.405
203.86	1.253
204.33	0.477
204.80	0.542
205.28	0.564
205.75	0.410
206.22	0.680
206.69	0.556
207.16	0.494
207.63	0.687
208.11	0.459
208.58	0.520
209.05	0.810
209.52	0.686
209.99	0.413
210.46	0.660
210.93	0.802
211.41	0.518
211.88	0.634
212.35	0.581
212.82	0.994
213.29	0.660
213.76	0.397
214.23	0.688
214.70	0.586
215.18	0.445
215.65	0.548
216.12	0.463
216.59	0.571
217.06	0.506
217.53	0.490
218.00	0.612
218.47	0.577
218.94	0.437
219.41	0.468
219.89	0.536
220.36	0.461
220.83	0.741
221.30	0.940
221.77	0.957
222.24	0.622
222.71	0.541
223.18	0.867
223.65	0.610
224.12	0.467
224.59	0.751
225.06	0.829
225.54	0.546
226.01	0.973
226.48	1.031
226.95	0.880
227.42	0.989
227.89	1.198
228.36	1.180
228.83	1.092
229.30	1.053
229.77	1.536
230.24	1.343
230.71	1.127
231.18	1.318
231.65	1.559
232.12	1.353
232.59	1.726
233.06	1.764
233.53	1.801
234.00	1.630
234.47	1.811
234.94	2.095
235.41	1.785
235.88	1.722
236.35	2.199
236.82	1.935
237.29	2.038
237.76	2.008
238.23	2.187
238.70	2.133
239.17	2.043
239.64	2.073
240.11	2.201
240.58	2.102
241.05	2.159
241.52	2.551
241.99	2.208
242.46	2.106
242.93	2.231
243.40	2.385
243.87	2.615
244.34	2.278
244.81	2.399
245.28	2.357
245.75	2.316
246.22	2.313
246.69	3.130
247.16	2.393
247.63	2.337
248.10	2.537
248.57	3.131
249.04	2.610
249.51	2.474
249.98	3.063
250.45	2.419
250.92	2.324
251.39	2.274
251.85	2.559
252.32	2.308
252.79	2.179
253.26	2.232
253.73	2.097
254.20	1.998
254.67	1.931
255.14	1.969
255.61	1.938
256.08	1.838
256.55	1.784
257.02	1.765
257.49	1.700
257.95	1.662
258.42	1.658
258.89	1.606
259.36	1.560
259.83	1.554
260.30	1.535
260.77	1.479
261.24	1.466
261.71	1.441
262.17	1.438
262.64	1.418
263.11	1.374
263.58	1.360
264.05	1.351
264.52	1.337
264.99	1.332
265.46	1.305
265.92	1.283
266.39	1.275
266.86	1.264
267.33	1.259
267.80	1.236
268.27	1.224
268.74	1.221
269.20	1.199
269.67	1.196
270.14	1.195
270.61	1.178
271.08	1.154
271.55	1.155
272.01	1.147
272.48	1.137
272.95	1.121
273.42	1.119
273.89	1.110
274.36	1.100
274.82	1.089
275.29	1.098
275.76	1.077
276.23	1.074
276.70	1.072
277.16	1.072
277.63	1.070
278.10	1.059
278.57	1.047
279.04	1.051
279.50	1.044
279.97	1.037
280.44	1.040
280.91	1.041
281.38	1.030
281.84	1.029
282.31	1.031
282.78	1.023
283.25	1.021
283.72	1.021
284.18	1.026
284.65	1.020
285.12	1.012
285.59	1.018
286.05	1.021
286.52	1.014
286.99	1.016
287.46	1.021
287.92	1.013
288.39	1.015
288.86	1.016
289.33	1.014
289.79	1.012
290.26	1.004
290.73	1.004
291.20	1.000
291.66	0.997
292.13	0.997
292.60	0.999
293.07	0.991
293.53	0.986
294.00	0.976
294.47	0.969
294.93	0.961
295.40	0.956
295.87	0.954
296.34	0.941
296.80	0.931
297.27	0.922
297.74	0.916
298.20	0.908
298.67	0.901
299.14	0.886
299.60	0.878
300.07	0.863
300.54	0.855
301.01	0.849
301.47	0.835
301.94	0.825
302.41	0.816
302.87	0.808
303.34	0.800
303.81	0.796
304.27	0.779
304.74	0.771
305.21	0.765
305.67	0.761
306.14	0.748
306.61	0.742
307.07	0.734
307.54	0.728
308.01	0.719
308.47	0.713
308.94	0.709
309.40	0.698
309.87	0.695
310.34	0.694
310.80	0.686
311.27	0.680
311.74	0.679
312.20	0.672
312.67	0.672
313.13	0.666
313.60	0.661
314.07	0.659
314.53	0.657
315.00	0.648
315.47	0.650
315.93	0.650
316.40	0.638
316.86	0.638
317.33	0.633
317.80	0.632
318.26	0.629
318.73	0.623
319.19	0.623
319.66	0.620
320.13	0.612
320.59	0.613
321.06	0.616
321.52	0.607
321.99	0.607
322.45	0.600
322.92	0.599
323.39	0.596
323.85	0.594
324.32	0.595
324.78	0.590
325.25	0.579
325.71	0.583
326.18	0.573
326.64	0.576
327.11	0.569
327.58	0.566
328.04	0.566
328.51	0.556
328.97	0.559
329.44	0.555
329.90	0.552
330.37	0.547
330.83	0.547
331.30	0.544
331.76	0.538
332.23	0.539
332.69	0.533
333.16	0.533
333.62	0.527
334.09	0.522
334.56	0.520
335.02	0.521
335.49	0.517
335.95	0.512
336.42	0.511
336.88	0.506
337.35	0.505
337.81	0.506
338.28	0.504
338.74	0.502
339.20	0.501
339.67	0.506
340.13	0.504
340.60	0.494
341.06	0.493
341.53	0.492
341.99	0.490
342.46	0.488
342.92	0.488
343.39	0.483
343.85	0.482
344.32	0.483
344.78	0.482
345.25	0.480
345.71	0.480
346.17	0.480
346.64	0.477
347.10	0.469
347.57	0.466
348.03	0.460
348.50	0.454
348.96	0.452
349.43	0.449
349.89	0.446
350.35	0.442
350.82	0.432
351.28	0.433
351.75	0.424
352.21	0.425
352.67	0.416
353.14	0.408
353.60	0.397
354.07	0.394
354.53	0.388
355.00	0.381
355.46	0.374
355.92	0.359
356.39	0.360
356.85	0.345
357.31	0.335
357.78	0.329
358.24	0.314
358.71	0.305
359.17	0.294
359.63	0.280
360.10	0.265
360.56	0.256
361.03	0.240
361.49	0.232
361.95	0.218
362.42	0.207
362.88	0.198
363.34	0.188
363.81	0.175
364.27	0.166
364.73	0.158
365.20	0.148
365.66	0.144
366.12	0.138
366.59	0.133
367.05	0.126
367.51	0.122
367.98	0.117
368.44	0.118
368.90	0.113
369.37	0.113
369.83	0.109
370.29	0.108
370.76	0.106
371.22	0.105
371.68	0.105
372.15	0.102
372.61	0.099
373.07	0.099
373.54	0.098
374.00	0.098
374.46	0.100
374.92	0.099
375.39	0.097
375.85	0.095
376.31	0.096
376.78	0.095
377.24	0.094
377.70	0.094
378.16	0.095
378.63	0.094
379.09	0.092
379.55	0.094
380.01	0.093
380.48	0.092
380.94	0.092
381.40	0.091
381.87	0.092
382.33	0.092
382.79	0.090
383.25	0.090
383.72	0.091
384.18	0.089
384.64	0.090
385.10	0.088
385.56	0.087
386.03	0.089
386.49	0.090
386.95	0.090
387.41	0.088
387.88	0.083
388.34	0.085
388.80	0.088
389.26	0.086
389.72	0.087
390.19	0.084
390.65	0.084
391.11	0.085
391.57	0.086
392.04	0.085
392.50	0.085
392.96	0.083
393.42	0.082
393.88	0.084
394.34	0.081
394.81	0.084
395.27	0.082
395.73	0.079
396.19	0.083
396.65	0.081
397.12	0.081
397.58	0.082
398.04	0.080
398.50	0.081
398.96	0.080
399.42	0.079
399.89	0.079
400.35	0.081
400.81	0.078
401.27	0.082
401.73	0.077
402.19	0.078
402.65	0.073
403.12	0.078
403.58	0.077
404.04	0.075
404.50	0.074
404.96	0.076
405.42	0.076
405.88	0.075
406.34	0.074
406.81	0.074
407.27	0.073
407.73	0.075
408.19	0.074
408.65	0.073
409.11	0.073
409.57	0.072
410.03	0.075
410.49	0.071
410.96	0.070
411.42	0.074
411.88	0.070
412.34	0.067
412.80	0.070
413.26	0.073
413.72	0.071
414.18	0.069
414.64	0.066
415.10	0.069
415.56	0.069
416.02	0.070
416.48	0.068
416.95	0.073
417.41	0.068
417.87	0.070
418.33	0.068
418.79	0.067
419.25	0.068
419.71	0.067
420.17	0.065
420.63	0.065
421.09	0.065
421.55	0.066
422.01	0.066
422.47	0.065
422.93	0.066
423.39	0.066
423.85	0.065
424.31	0.064
424.77	0.067
425.23	0.064
425.69	0.067
426.15	0.069
426.61	0.066
427.07	0.065
427.53	0.066
427.99	0.066
428.45	0.068
428.91	0.063
429.37	0.066
429.83	0.064
430.29	0.066
430.75	0.065
431.21	0.064
431.67	0.067
432.13	0.066
432.59	0.062
433.05	0.066
433.51	0.064
433.97	0.061
434.43	0.066
434.89	0.065
435.35	0.064
435.81	0.067
436.27	0.066
436.73	0.064
437.19	0.066
437.65	0.062
438.11	0.063
438.57	0.064
439.03	0.064
439.48	0.064
439.94	0.067
440.40	0.064
440.86	0.062
441.32	0.064
441.78	0.063
442.24	0.067
442.70	0.065
443.16	0.064
443.62	0.067
444.08	0.064
444.54	0.064
444.99	0.063
445.45	0.062
445.91	0.063
446.37	0.067
446.83	0.064
447.29	0.068
447.75	0.063
448.21	0.064
448.67	0.066
449.12	0.063
449.58	0.066
450.04	0.065
450.50	0.064
450.96	0.063
451.42	0.066
451.88	0.065
452.34	0.062
452.79	0.061
453.25	0.064
453.71	0.063
454.17	0.060
454.63	0.065
455.09	0.066
455.55	0.062
456.00	0.063
456.46	0.064
456.92	0.063
457.38	0.065
457.84	0.066
458.30	0.064
458.75	0.064
459.21	0.065
459.67	0.063
460.13	0.067
460.59	0.066
461.04	0.064
461.50	0.063
461.96	0.065
462.42	0.065
462.88	0.065
463.33	0.064
463.79	0.065
464.25	0.063
464.71	0.064
465.17	0.063
465.62	0.063
466.08	0.062
466.54	0.065
467.00	0.063
467.46	0.065
467.91	0.064
468.37	0.062
468.83	0.064
469.29	0.064
469.74	0.064
470.20	0.064
470.66	0.064
471.12	0.063
471.57	0.063
472.03	0.063
472.49	0.064
472.95	0.066
473.40	0.064
473.86	0.065
474.32	0.064
474.78	0.065
475.23	0.067
475.69	0.065
476.15	0.066
476.60	0.068
477.06	0.068
477.52	0.066
477.98	0.067
478.43	0.068
478.89	0.065
479.35	0.066
479.80	0.063
480.26	0.063
480.72	0.063
481.18	0.064
481.63	0.068
482.09	0.066
482.55	0.066
483.00	0.063
483.46	0.067
483.92	0.065
484.37	0.064
484.83	0.065
485.29	0.069
485.74	0.065
486.20	0.066
486.66	0.066
487.11	0.065
487.57	0.066
488.03	0.063
488.48	0.066
488.94	0.065
489.40	0.066
489.85	0.065
490.31	0.066
490.77	0.064
491.22	0.067
491.68	0.065
492.13	0.065
492.59	0.068
493.05	0.066
493.50	0.064
493.96	0.065
494.42	0.069
494.87	0.065
495.33	0.063
495.78	0.066
496.24	0.067
496.70	0.068
497.15	0.064
497.61	0.067
498.06	0.067
498.52	0.063
498.98	0.067
499.43	0.065
499.89	0.065
500.34	0.063
500.80	0.066
501.25	0.065
501.71	0.064
502.17	0.064
502.62	0.065
503.08	0.063
503.53	0.065
503.99	0.068
504.44	0.067
504.90	0.064
505.36	0.067
505.81	0.065
506.27	0.065
506.72	0.065
507.18	0.065
507.63	0.064
508.09	0.065
508.54	0.064
509.00	0.066
509.45	0.065
509.91	0.063
510.36	0.064
510.82	0.065
511.27	0.062
511.73	0.065
512.19	0.065
512.64	0.064
513.10	0.065
513.55	0.064
514.01	0.067
514.46	0.066
514.92	0.064
515.37	0.066
515.83	0.063
516.28	0.065
516.73	0.065
517.19	0.063
517.64	0.067
518.10	0.066
518.55	0.063
519.01	0.066
519.46	0.064
519.92	0.064
520.37	0.062
520.83	0.066
521.28	0.063
521.74	0.064
522.19	0.066
522.65	0.066
523.10	0.063
523.55	0.064
524.01	0.064
524.46	0.065
524.92	0.064
525.37	0.066
525.83	0.065
526.28	0.066
526.73	0.064
527.19	0.064
527.64	0.065
528.10	0.065
528.55	0.065
529.01	0.065
529.46	0.066
529.91	0.064
530.37	0.064
530.82	0.066
531.28	0.064
531.73	0.065
532.18	0.066
532.64	0.065
533.09	0.067
533.54	0.065
534.00	0.066
534.45	0.068
534.91	0.065
535.36	0.066
535.81	0.066
536.27	0.067
536.72	0.069
537.17	0.068
537.63	0.067
538.08	0.069
538.54	0.068
538.99	0.069
539.44	0.070
539.90	0.070
540.35	0.069
540.80	0.070
541.26	0.070
541.71	0.073
542.16	0.072
542.62	0.074
543.07	0.075
543.52	0.071
543.98	0.073
544.43	0.072
544.88	0.073
545.34	0.075
545.79	0.074
546.24	0.074
546.69	0.073
547.15	0.074
547.60	0.076
548.05	0.075
548.51	0.077
548.96	0.078
549.41	0.079
549.86	0.079
550.32	0.079
550.77	0.079
551.22	0.078
551.68	0.081
552.13	0.080
552.58	0.079
553.03	0.081
553.49	0.082
553.94	0.081
554.39	0.083
554.84	0.084
555.30	0.085
555.75	0.086
556.20	0.085
556.65	0.086
557.11	0.086
557.56	0.089
558.01	0.088
558.46	0.089
558.92	0.090
559.37	0.091
559.82	0.090
560.27	0.091
560.72	0.093
561.18	0.094
561.63	0.093
562.08	0.095
562.53	0.093
562.99	0.095
563.44	0.097
563.89	0.096
564.34	0.097
564.79	0.099
565.25	0.100
565.70	0.099
566.15	0.099
566.60	0.102
567.05	0.104
567.50	0.105
567.96	0.104
568.41	0.105
568.86	0.105
569.31	0.107
569.76	0.105
570.21	0.108
570.67	0.108
571.12	0.109
571.57	0.108
572.02	0.112
572.47	0.112
572.92	0.113
573.37	0.118
573.83	0.116
574.28	0.116
574.73	0.116
575.18	0.118
575.63	0.117
576.08	0.119
576.53	0.119
576.98	0.123
577.44	0.124
577.89	0.123
578.34	0.126
578.79	0.125
579.24	0.126
579.69	0.128
580.14	0.130
580.59	0.132
581.04	0.132
581.49	0.133
581.95	0.134
582.40	0.137
582.85	0.139
583.30	0.139
583.75	0.140
584.20	0.141
584.65	0.144
585.10	0.147
585.55	0.149
586.00	0.147
586.45	0.149
586.90	0.153
587.35	0.154
587.80	0.156
588.25	0.158
588.71	0.160
589.16	0.164
589.61	0.165
590.06	0.166
590.51	0.169
590.96	0.172
591.41	0.172
591.86	0.175
592.31	0.177
592.76	0.180
593.21	0.179
593.66	0.184
594.11	0.185
594.56	0.188
595.01	0.188
595.46	0.191
595.91	0.196
596.36	0.196
596.81	0.200
597.26	0.200
597.71	0.202
598.16	0.205
598.61	0.210
599.06	0.211
599.51	0.211
599.96	0.213
600.41	0.216
600.86	0.220
601.31	0.221
601.76	0.225
602.21	0.228
602.65	0.230
603.10	0.231
603.55	0.232
604.00	0.238
604.45	0.237
604.90	0.239
605.35	0.242
605.80	0.244
606.25	0.245
606.70	0.247
607.15	0.250
607.60	0.253
608.05	0.254
608.50	0.255
608.95	0.256
609.39	0.259
609.84	0.259
610.29	0.261
610.74	0.263
611.19	0.263
611.64	0.267
612.09	0.267
612.54	0.268
612.99	0.268
613.44	0.269
613.88	0.269
614.33	0.270
614.78	0.274
615.23	0.275
615.68	0.274
616.13	0.273
616.58	0.275
617.03	0.278
617.47	0.277
617.92	0.281
618.37	0.282
618.82	0.280
619.27	0.281
619.72	0.282
620.17	0.280
620.61	0.283
621.06	0.282
621.51	0.281
621.96	0.285
622.41	0.286
622.86	0.286
623.30	0.287
623.75	0.287
624.20	0.288
624.65	0.287
625.10	0.290
625.54	0.289
625.99	0.287
626.44	0.292
626.89	0.293
627.34	0.293
627.78	0.295
628.23	0.297
628.68	0.296
629.13	0.298
629.58	0.300
630.02	0.300
630.47	0.304
630.92	0.304
631.37	0.308
631.81	0.310
632.26	0.311
632.71	0.312
633.16	0.315
633.61	0.317
634.05	0.320
634.50	0.319
634.95	0.324
635.40	0.326
635.84	0.330
636.29	0.332
636.74	0.335
637.18	0.336
637.63	0.340
638.08	0.341
638.53	0.344
638.97	0.347
639.42	0.354
639.87	0.354
640.32	0.357
640.76	0.361
641.21	0.365
641.66	0.367
642.10	0.372
642.55	0.376
643.00	0.378
643.44	0.381
643.89	0.387
644.34	0.390
644.79	0.394
645.23	0.400
645.68	0.401
646.13	0.404
646.57	0.408
647.02	0.412
647.47	0.417
647.91	0.420
648.36	0.423
648.81	0.426
649.25	0.429
649.70	0.433
650.15	0.437
650.59	0.441
651.04	0.444
651.48	0.451
651.93	0.453
652.38	0.455
652.82	0.462
653.27	0.459
653.72	0.466
654.16	0.471
654.61	0.474
655.06	0.478
655.50	0.478
655.95	0.482
656.39	0.484
656.84	0.486
657.29	0.492
657.73	0.494
658.18	0.495
658.62	0.497
659.07	0.502
659.52	0.503
659.96	0.503
660.41	0.509
660.85	0.511
661.30	0.515
661.74	0.519
662.19	0.516
662.64	0.517
663.08	0.516
663.53	0.520
663.97	0.522
664.42	0.519
664.86	0.519
665.31	0.522
665.75	0.521
666.20	0.519
666.65	0.522
667.09	0.518
667.54	0.517
667.98	0.517
668.43	0.516
668.87	0.513
669.32	0.509
669.76	0.505
670.21	0.506
670.65	0.498
671.10	0.494
671.54	0.491
671.99	0.487
672.43	0.478
672.88	0.476
673.32	0.467
673.77	0.464
674.21	0.455
674.66	0.445
675.10	0.439
675.55	0.428
675.99	0.423
676.44	0.416
676.88	0.406
677.33	0.398
677.77	0.387
678.22	0.380
678.66	0.371
679.11	0.360
679.55	0.351
679.99	0.343
680.44	0.335
680.88	0.323
681.33	0.317
681.77	0.308
682.22	0.296
682.66	0.287
683.11	0.275
683.55	0.269
683.99	0.259
684.44	0.251
684.88	0.244
685.33	0.234
685.77	0.224
686.21	0.218
686.66	0.209
687.10	0.201
687.55	0.193
687.99	0.186
688.44	0.181
688.88	0.173
689.32	0.168
689.77	0.161
690.21	0.155
690.65	0.147
691.10	0.144
691.54	0.139
691.99	0.135
692.43	0.129
692.87	0.125
693.32	0.119
693.76	0.116
694.20	0.111
694.65	0.108
695.09	0.103
695.53	0.099
695.98	0.095
696.42	0.094
696.86	0.092
697.31	0.087
697.75	0.084
698.19	0.083
698.64	0.078
699.08	0.077
699.52	0.074
699.97	0.072
700.41	0.071
700.85	0.071
701.30	0.064
701.74	0.066
702.18	0.063
702.63	0.061
703.07	0.056
703.51	0.059
703.96	0.059
704.40	0.058
704.84	0.057
705.28	0.053
705.73	0.055
706.17	0.050
706.61	0.052
707.06	0.051
707.50	0.050
707.94	0.050
708.38	0.045
708.83	0.046
709.27	0.046
709.71	0.046
710.15	0.044
710.60	0.045
711.04	0.043
711.48	0.043
711.92	0.043
712.37	0.042
712.81	0.042
713.25	0.043
713.69	0.041
714.13	0.040
714.58	0.041
715.02	0.038
715.46	0.038
715.90	0.040
716.35	0.039
716.79	0.040
717.23	0.041
717.67	0.040
718.11	0.036
718.56	0.039
719.00	0.038
719.44	0.039
719.88	0.039
720.32	0.040
720.76	0.036
721.21	0.039
721.65	0.037
722.09	0.036
722.53	0.037
722.97	0.039
723.41	0.036
723.86	0.036
724.30	0.039
724.74	0.040
725.18	0.037
725.62	0.039
726.06	0.037
726.50	0.040
726.95	0.039
727.39	0.037
727.83	0.038
728.27	0.038
728.71	0.036
729.15	0.040
729.59	0.035
730.03	0.037
730.48	0.039
730.92	0.038
731.36	0.038
731.80	0.038
732.24	0.040
732.68	0.038
733.12	0.039
733.56	0.041
734.00	0.042
734.44	0.039
734.89	0.041
735.33	0.036
735.77	0.041
736.21	0.040
736.65	0.039
737.09	0.041
737.53	0.040
737.97	0.040
738.41	0.039
738.85	0.042
739.29	0.040
739.73	0.040
740.17	0.039
740.61	0.039
741.05	0.041
741.49	0.041
741.93	0.039
742.37	0.040
742.81	0.041
743.26	0.041
743.70	0.040
744.14	0.039
744.58	0.039
745.02	0.039
745.46	0.040
745.90	0.037
746.34	0.040
746.78	0.042
747.22	0.040
747.66	0.039
748.10	0.038
748.54	0.040
748.98	0.039
749.42	0.041
749.86	0.041
750.29	0.040
750.73	0.044
751.17	0.042
751.61	0.039
752.05	0.040
752.49	0.041
752.93	0.038
753.37	0.039
753.81	0.039
754.25	0.039
754.69	0.041
755.13	0.040
755.57	0.040
756.01	0.038
756.45	0.037
756.89	0.040
757.33	0.040
757.77	0.039
758.21	0.039
758.64	0.036
759.08	0.040
759.52	0.038
759.96	0.040
760.40	0.038
760.84	0.037
761.28	0.038
761.72	0.041
762.16	0.040
762.60	0.038
763.03	0.041
763.47	0.039
763.91	0.036
764.35	0.037
764.79	0.038
765.23	0.039
765.67	0.035
766.11	0.040
766.54	0.039
766.98	0.039
767.42	0.038
767.86	0.041
768.30	0.038
768.74	0.037
769.17	0.040
769.61	0.039
770.05	0.040
770.49	0.039
770.93	0.039
771.37	0.040
771.80	0.035
772.24	0.034
772.68	0.038
773.12	0.037
773.56	0.040
774.00	0.039
774.43	0.037
774.87	0.037
775.31	0.037
775.75	0.034
776.19	0.039
776.62	0.037
777.06	0.037
777.50	0.038
777.94	0.035
778.37	0.038
778.81	0.038
779.25	0.034
779.69	0.036
780.13	0.039
780.56	0.036
781.00	0.037
781.44	0.038
781.88	0.036
782.31	0.037
782.75	0.036
783.19	0.039
783.63	0.039
784.06	0.036
784.50	0.036
784.94	0.037
785.37	0.036
785.81	0.035
786.25	0.035
786.69	0.037
787.12	0.039
787.56	0.036
788.00	0.036
788.43	0.039
788.87	0.038
789.31	0.034
789.75	0.036
790.18	0.036
790.62	0.035
791.06	0.037
791.49	0.039
791.93	0.036
792.37	0.033
792.80	0.038
793.24	0.035
793.68	0.039
794.11	0.037
794.55	0.038
794.99	0.034
795.42	0.039
795.86	0.041
796.30	0.035
796.73	0.036
797.17	0.036
797.61	0.039
798.04	0.038
798.48	0.037
798.91	0.038
799.35	0.038
799.79	0.034
800.22	0.037
800.66	0.037
801.10	0.039
801.53	0.041
801.97	0.038
802.40	0.032
802.84	0.035
803.28	0.034
803.71	0.034
804.15	0.040
804.58	0.040
805.02	0.039
805.46	0.036
805.89	0.037
806.33	0.035
806.76	0.034
807.20	0.036
807.63	0.037
808.07	0.035
808.51	0.039
808.94	0.039
809.38	0.036
809.81	0.038
810.25	0.036
810.68	0.036
811.12	0.037
811.55	0.037
811.99	0.036
812.42	0.036
812.86	0.038
813.29	0.035
813.73	0.038
814.17	0.030
814.60	0.035
815.04	0.034
815.47	0.035
815.91	0.032
816.34	0.038
816.78	0.039
817.21	0.039
817.65	0.038
818.08	0.037
818.52	0.034
818.95	0.040
819.39	0.039
819.82	0.037
820.25	0.040
820.69	0.039
821.12	0.042
821.56	0.037
821.99	0.040
822.43	0.040
822.86	0.038
823.30	0.035
823.73	0.039
824.17	0.039
824.60	0.040
825.04	0.038
825.47	0.038
825.90	0.036
826.34	0.040
826.77	0.037
827.21	0.043
827.64	0.038
828.08	0.044
828.51	0.042
828.94	0.039
829.38	0.041
829.81	0.043
830.25	0.044
830.68	0.042
831.11	0.040
831.55	0.041
831.98	0.047
832.42	0.043
832.85	0.044
833.28	0.046
833.72	0.042
834.15	0.048
834.58	0.042
835.02	0.042
835.45	0.045
835.88	0.045
836.32	0.041
836.75	0.045
837.19	0.045
837.62	0.043
838.05	0.045
838.49	0.045
838.92	0.043
839.35	0.044
839.79	0.043
840.22	0.044
840.65	0.041
841.09	0.045
841.52	0.049
841.95	0.045
842.39	0.042
842.82	0.046
843.25	0.045
843.68	0.050
844.12	0.046
844.55	0.045
844.98	0.048
845.42	0.044
845.85	0.044
846.28	0.051
846.71	0.039
847.15	0.045
847.58	0.050
848.01	0.044
848.45	0.046
848.88	0.045
849.31	0.044
849.74	0.050
850.18	0.043
850.61	0.047
851.04	0.047
851.47	0.043
851.91	0.045
852.34	0.047
852.77	0.045
853.20	0.048
853.64	0.052
854.07	0.048
854.50	0.045
854.93	0.043
855.36	0.043
855.80	0.047
856.23	0.051
856.66	0.045
857.09	0.055
857.52	0.051
857.96	0.047
858.39	0.053
858.82	0.044
859.25	0.049
859.68	0.047
860.12	0.046
860.55	0.049
860.98	0.049
861.41	0.049
861.84	0.057
862.27	0.049
862.71	0.054
863.14	0.054
863.57	0.053
864.00	0.049
864.43	0.046
864.86	0.052
865.30	0.053
865.73	0.053
866.16	0.043
866.59	0.053
867.02	0.053
867.45	0.046
867.88	0.055
868.31	0.050
868.75	0.048
869.18	0.048
869.61	0.049
870.04	0.051
870.47	0.052
870.90	0.054
871.33	0.053
871.76	0.054
872.19	0.044
872.62	0.055
873.06	0.056
873.49	0.050
873.92	0.055
874.35	0.053
874.78	0.060
875.21	0.052
875.64	0.056
876.07	0.057
876.50	0.050
876.93	0.049
877.36	0.061
877.79	0.055
878.22	0.049
878.65	0.052
879.08	0.058
879.51	0.051
879.94	0.055
880.37	0.050
880.80	0.057
881.23	0.059
881.67	0.055
882.10	0.059
882.53	0.057
882.96	0.056
883.39	0.058
883.82	0.061
884.25	0.062
884.68	0.060
885.11	0.060
885.54	0.061
885.97	0.055
886.39	0.054
886.82	0.059
887.25	0.055
887.68	0.056
888.11	0.058
888.54	0.059
888.97	0.056
889.40	0.061
889.83	0.058
890.26	0.066
890.69	0.059
891.12	0.054
891.55	0.061
891.98	0.063
892.41	0.057
892.84	0.065
893.27	0.065
893.70	0.061
894.13	0.061
894.56	0.058
894.98	0.064
895.41	0.064
895.84	0.067
896.27	0.060
896.70	0.061
897.13	0.058
897.56	0.066
897.99	0.061
898.42	0.064
898.85	0.069
899.27	0.064
899.70	0.067
900.13	0.065
900.56	0.065
900.99	0.062
901.42	0.061
901.85	0.063
902.28	0.067
902.70	0.063
903.13	0.065
903.56	0.071
903.99	0.064
904.42	0.070
904.85	0.065
905.27	0.064
905.70	0.066
906.13	0.065
906.56	0.064
906.99	0.067
907.42	0.064
907.84	0.064
908.27	0.069
908.70	0.064
909.13	0.065
909.56	0.064
909.98	0.065
910.41	0.066
910.84	0.067
911.27	0.061
911.70	0.064
912.12	0.064
912.55	0.063
912.98	0.063
913.41	0.068
913.84	0.063
914.26	0.066
914.69	0.065
915.12	0.069
915.55	0.063
915.97	0.062
916.40	0.066
916.83	0.066
917.26	0.062
917.68	0.068
918.11	0.069
918.54	0.066
918.97	0.067
919.39	0.068
919.82	0.069
920.25	0.069
920.67	0.068
921.10	0.067
921.53	0.065
921.96	0.065
922.38	0.071
922.81	0.071
923.24	0.069
923.66	0.074
924.09	0.069
924.52	0.075
924.94	0.071
925.37	0.072
925.80	0.071
926.22	0.076
926.65	0.075
927.08	0.073
927.50	0.074
927.93	0.078
928.36	0.080
928.78	0.079
929.21	0.077
929.64	0.083
930.06	0.082
930.49	0.086
930.92	0.079
931.34	0.082
931.77	0.085
932.20	0.082
932.62	0.083
933.05	0.082
933.47	0.084
933.90	0.086
934.33	0.091
934.75	0.086
935.18	0.091
935.61	0.087
936.03	0.095
936.46	0.095
936.88	0.098
937.31	0.095
937.73	0.101
938.16	0.100
938.59	0.101
939.01	0.108
939.44	0.107
939.86	0.104
940.29	0.110
940.71	0.111
941.14	0.108
941.57	0.109
941.99	0.122
942.42	0.114
942.84	0.114
943.27	0.119
943.69	0.123
944.12	0.123
944.54	0.123
944.97	0.125
945.39	0.133
945.82	0.132
946.24	0.126
946.67	0.135
947.09	0.138
947.52	0.143
947.94	0.144
948.37	0.143
948.79	0.141
949.22	0.149
949.64	0.149
950.07	0.152
950.49	0.157
950.92	0.153
951.34	0.160
951.77	0.165
952.19	0.165
952.62	0.167
953.04	0.172
953.47	0.175
953.89	0.172
954.32	0.175
954.74	0.188
955.17	0.184
955.59	0.185
956.01	0.192
956.44	0.192
956.86	0.191
957.29	0.197
957.71	0.209
958.14	0.207
958.56	0.206
958.98	0.211
959.41	0.208
959.83	0.212
960.26	0.220
960.68	0.217
961.10	0.214
961.53	0.215
961.95	0.217
962.38	0.225
962.80	0.221
963.22	0.218
963.65	0.224
964.07	0.219
964.50	0.221
964.92	0.229
965.34	0.224
965.77	0.226
966.19	0.227
966.61	0.225
967.04	0.234
967.46	0.229
967.88	0.221
968.31	0.231
968.73	0.224
969.15	0.226
969.58	0.231
970.00	0.231
970.42	0.233
970.85	0.231
971.27	0.227
971.69	0.234
972.12	0.226
972.54	0.228
972.96	0.237
973.39	0.236
973.81	0.234
974.23	0.244
974.65	0.238
975.08	0.239
975.50	0.238
975.92	0.232
976.35	0.233
976.77	0.235
977.19	0.231
977.61	0.239
978.04	0.230
978.46	0.231
978.88	0.239
979.30	0.240
979.73	0.234
980.15	0.239
980.57	0.234
980.99	0.237
981.42	0.233
981.84	0.235
982.26	0.244
982.68	0.234
983.11	0.235
983.53	0.242
983.95	0.237
984.37	0.228
984.79	0.233
985.22	0.229
985.64	0.235
986.06	0.227
986.48	0.238
986.90	0.234
987.33	0.230
987.75	0.230
988.17	0.234
988.59	0.231
989.01	0.217
989.43	0.232
989.86	0.235
990.28	0.219
990.70	0.223
991.12	0.227
991.54	0.231
991.96	0.226
992.39	0.218
992.81	0.227
993.23	0.226
993.65	0.218
994.07	0.226
994.49	0.225
994.91	0.219
995.34	0.223
995.76	0.221
996.18	0.223
996.60	0.210
997.02	0.212
997.44	0.230
997.86	0.214
998.28	0.205
998.70	0.213
999.12	0.212
999.55	0.208
999.97	0.214
1000.39	0.209
1000.81	0.204
1001.23	0.202
1001.65	0.208
1002.07	0.205
1002.49	0.200
1002.91	0.206
1003.33	0.211
1003.75	0.211
1004.17	0.198
1004.59	0.210
1005.01	0.205
1005.43	0.202
1005.85	0.202
1006.28	0.202
1006.70	0.203
1007.12	0.199
1007.54	0.197
1007.96	0.194
1008.38	0.199
1008.80	0.196
1009.22	0.197
1009.64	0.191
1010.06	0.188
1010.48	0.189
1010.90	0.199
1011.32	0.199
1011.74	0.190
1012.16	0.185
1012.58	0.200
1013.00	0.183
1013.42	0.171
1013.84	0.186
1014.26	0.177
1014.67	0.179
1015.09	0.180
1015.51	0.176
1015.93	0.182
1016.35	0.167
1016.77	0.172
1017.19	0.176
1017.61	0.168
1018.03	0.160
1018.45	0.182
1018.87	0.174
1019.29	0.159
1019.71	0.162
1020.13	0.170
1020.55	0.173
1020.97	0.161
1021.38	0.159
1021.80	0.169
1022.22	0.167
1022.64	0.154
1023.06	0.177
1023.48	0.156
1023.90	0.153
1024.32	0.181
1024.74	0.159
1025.15	0.164
1025.57	0.166
1025.99	0.163
1026.41	0.164
1026.83	0.155
1027.25	0.159
1027.67	0.169
1028.08	0.151
1028.50	0.158
1028.92	0.159
1029.34	0.150
1029.76	0.148
1030.18	0.158
1030.60	0.150
1031.01	0.154
1031.43	0.142
1031.85	0.143
1032.27	0.155
1032.69	0.137
1033.10	0.142
1033.52	0.148
1033.94	0.160
1034.36	0.140
1034.78	0.147
1035.19	0.147
1035.61	0.141
1036.03	0.133
1036.45	0.147
1036.87	0.156
1037.28	0.127
1037.70	0.125
1038.12	0.147
1038.54	0.134
1038.95	0.130
1039.37	0.152
1039.79	0.123
1040.21	0.121
1040.62	0.106
1041.04	0.150
1041.46	0.147
1041.88	0.136
1042.29	0.130
1042.71	0.143
1043.13	0.114
1043.55	0.119
1043.96	0.138
1044.38	0.129
1044.80	0.132
1045.21	0.138
1045.63	0.138
1046.05	0.141
1046.47	0.127
1046.88	0.129
1047.30	0.129
1047.72	0.126
1048.13	0.105
1048.55	0.143
1048.97	0.126
1049.38	0.106
1049.80	0.115
1050.22	0.133
1050.63	0.117
1051.05	0.122
1051.47	0.131
1051.88	0.133
1052.30	0.116
1052.72	0.086
1053.13	0.138
1053.55	0.127
1053.97	0.084
1054.38	0.157
1054.80	0.145
1055.21	0.124
1055.63	0.107
1056.05	0.105
1056.46	0.159
1056.88	0.104
1057.29	0.104
1057.71	0.141
1058.13	0.129
1058.54	0.104
1058.96	0.151
1059.37	0.138
1059.79	0.116
1060.21	0.122
1060.62	0.141
1061.04	0.189
1061.45	0.116
1061.87	0.144
1062.28	0.167
1062.70	0.152
1063.12	0.124
1063.53	0.145
1063.95	0.146
1064.36	0.116
1064.78	0.110
1065.19	0.172
1065.61	0.230
1066.02	0.141
1066.44	0.133
1066.85	0.168
1067.27	0.099
1067.68	0.071
1068.10	0.168
1068.51	0.127
1068.93	0.108
1069.35	0.203
1069.76	0.181
1070.17	0.156
1070.59	0.098
1071.00	0.224
1071.42	0.252
1071.83	0.186
1072.25	0.125
1072.66	0.346
1073.08	0.208
1073.49	0.159
1073.91	0.289
1074.32	0.279
1074.74	0.231
1075.15	0.247
1075.57	0.336
1075.98	0.293
1076.40	0.206
1076.81	0.099
1077.22	0.333
1077.64	0.429
1078.05	0.340
1078.47	0.440
1078.88	0.385
1079.30	0.047
1079.71	0.248
1080.12	0.271
1080.54	0.338
1080.95	0.543
1081.37	0.262
1081.78	0.923
1082.19	0.447
1082.61	0.317
1083.02	1.110
1083.44	0.895
1083.85	0.127
1084.26	0.461
1084.68	1.005
1085.09	0.718
1085.50	0.341
1085.92	0.085
1086.33	-0.000
1086.74	0.933
1087.16	0.189
1087.57	-0.000
1087.98	-0.000
1088.40	0.112
1088.81	0.855
1089.22	-0.000
1089.64	0.222
1090.05	0.768
1090.46	-0.000
1090.88	-0.000
1091.29	0.078
1091.70	0.626
1092.12	-0.000
1092.53	-0.000
1092.94	0.424
1093.36	-0.000
1093.77	-0.000
1094.18	0.543
1094.59	-0.000
1095.01	-0.000
1095.42	-0.000
1095.83	0.507
1096.25	0.314
1096.66	-0.000
1097.07	0.665
1097.48	0.159
1097.90	-0.000
1098.31	-0.000
1098.72	0.561
1099.13	0.373
>>>>>End Processed Spectral Data<<<<<
