SpectraSuite Data File
++++++++++++++++++++++++++++++++++++
Date: Wed May 04 13:44:56 CEST 2016
User: spectrasuite
Dark Spectrum Present: Yes
Reference Spectrum Present: Yes
Number of Sampled Component Spectra: 1
Spectrometers: HR+C0708
Integration Time (usec): 1000 (HR+C0708)
Spectra Averaged: 10 (HR+C0708)
Boxcar Smoothing: 0 (HR+C0708)
Correct for Electrical Dark: No (HR+C0708)
Strobe/Lamp Enabled: No (HR+C0708)
Correct for Detector Non-linearity: No (HR+C0708)
Correct for Stray Light: No (HR+C0708)
Number of Pixels in Processed Spectrum: 2048
>>>>>Begin Processed Spectral Data<<<<<
188.76	1.357
189.23	-0.000
189.70	-0.000
190.17	-0.000
190.64	-0.000
191.12	-0.000
191.59	-0.000
192.06	-0.000
192.53	-0.000
193.01	-0.000
193.48	-0.000
193.95	-0.000
194.42	-0.000
194.90	-0.000
195.37	-0.000
195.84	-0.000
196.31	0.788
196.78	-0.000
197.26	-0.000
197.73	-0.000
198.20	1.133
198.67	-0.000
199.14	-0.000
199.62	-0.000
200.09	-0.000
200.56	1.328
201.03	1.131
201.50	0.572
201.97	0.748
202.45	0.636
202.92	0.746
203.39	0.684
203.86	-0.000
204.33	-0.000
204.80	0.765
205.28	0.564
205.75	0.582
206.22	0.656
206.69	0.843
207.16	0.667
207.63	-0.000
208.11	0.690
208.58	0.760
209.05	0.939
209.52	0.855
209.99	0.682
210.46	0.545
210.93	1.772
211.41	0.524
211.88	0.725
212.35	0.523
212.82	1.839
213.29	0.726
213.76	0.986
214.23	0.756
214.70	0.842
215.18	0.690
215.65	0.396
216.12	0.650
216.59	0.528
217.06	0.573
217.53	0.461
218.00	0.609
218.47	0.697
218.94	0.653
219.41	0.574
219.89	0.748
220.36	0.619
220.83	0.774
221.30	1.097
221.77	0.653
222.24	0.711
222.71	0.860
223.18	0.989
223.65	0.555
224.12	0.747
224.59	0.831
225.06	0.814
225.54	0.699
226.01	1.088
226.48	1.056
226.95	1.149
227.42	1.007
227.89	1.317
228.36	1.406
228.83	1.074
229.30	1.295
229.77	-0.000
230.24	1.244
230.71	1.320
231.18	1.556
231.65	1.670
232.12	1.876
232.59	1.638
233.06	1.832
233.53	2.102
234.00	1.786
234.47	1.997
234.94	2.311
235.41	1.866
235.88	2.167
236.35	2.188
236.82	2.301
237.29	1.869
237.76	2.125
238.23	2.567
238.70	2.443
239.17	1.973
239.64	2.496
240.11	2.839
240.58	2.158
241.05	2.200
241.52	2.789
241.99	2.176
242.46	2.251
242.93	2.196
243.40	3.303
243.87	2.362
244.34	2.249
244.81	2.469
245.28	2.612
245.75	2.426
246.22	2.387
246.69	2.753
247.16	2.367
247.63	2.508
248.10	2.473
248.57	3.240
249.04	2.550
249.51	2.357
249.98	2.900
250.45	2.451
250.92	2.457
251.39	2.336
251.85	2.396
252.32	2.197
252.79	2.166
253.26	2.042
253.73	1.971
254.20	1.818
254.67	1.749
255.14	1.716
255.61	1.651
256.08	1.600
256.55	1.537
257.02	1.513
257.49	1.421
257.95	1.405
258.42	1.360
258.89	1.337
259.36	1.299
259.83	1.269
260.30	1.253
260.77	1.219
261.24	1.189
261.71	1.181
262.17	1.154
262.64	1.134
263.11	1.114
263.58	1.107
264.05	1.086
264.52	1.067
264.99	1.055
265.46	1.045
265.92	1.020
266.39	1.016
266.86	1.012
267.33	1.001
267.80	0.982
268.27	0.972
268.74	0.966
269.20	0.944
269.67	0.941
270.14	0.942
270.61	0.927
271.08	0.914
271.55	0.909
272.01	0.911
272.48	0.887
272.95	0.884
273.42	0.879
273.89	0.877
274.36	0.867
274.82	0.862
275.29	0.859
275.76	0.848
276.23	0.844
276.70	0.838
277.16	0.840
277.63	0.836
278.10	0.831
278.57	0.830
279.04	0.828
279.50	0.822
279.97	0.816
280.44	0.817
280.91	0.817
281.38	0.812
281.84	0.809
282.31	0.809
282.78	0.809
283.25	0.807
283.72	0.807
284.18	0.813
284.65	0.804
285.12	0.804
285.59	0.803
286.05	0.802
286.52	0.803
286.99	0.805
287.46	0.803
287.92	0.806
288.39	0.802
288.86	0.809
289.33	0.804
289.79	0.801
290.26	0.805
290.73	0.805
291.20	0.794
291.66	0.795
292.13	0.794
292.60	0.789
293.07	0.783
293.53	0.781
294.00	0.774
294.47	0.771
294.93	0.771
295.40	0.756
295.87	0.751
296.34	0.736
296.80	0.732
297.27	0.723
297.74	0.716
298.20	0.707
298.67	0.699
299.14	0.690
299.60	0.681
300.07	0.674
300.54	0.664
301.01	0.654
301.47	0.646
301.94	0.640
302.41	0.628
302.87	0.616
303.34	0.610
303.81	0.601
304.27	0.597
304.74	0.587
305.21	0.576
305.67	0.574
306.14	0.566
306.61	0.559
307.07	0.549
307.54	0.547
308.01	0.539
308.47	0.531
308.94	0.527
309.40	0.526
309.87	0.517
310.34	0.512
310.80	0.508
311.27	0.502
311.74	0.499
312.20	0.498
312.67	0.496
313.13	0.491
313.60	0.485
314.07	0.485
314.53	0.483
315.00	0.478
315.47	0.477
315.93	0.475
316.40	0.469
316.86	0.468
317.33	0.468
317.80	0.462
318.26	0.462
318.73	0.461
319.19	0.459
319.66	0.452
320.13	0.451
320.59	0.450
321.06	0.451
321.52	0.446
321.99	0.447
322.45	0.443
322.92	0.440
323.39	0.440
323.85	0.437
324.32	0.437
324.78	0.432
325.25	0.427
325.71	0.431
326.18	0.425
326.64	0.421
327.11	0.416
327.58	0.420
328.04	0.420
328.51	0.418
328.97	0.417
329.44	0.414
329.90	0.407
330.37	0.404
330.83	0.406
331.30	0.401
331.76	0.399
332.23	0.398
332.69	0.397
333.16	0.394
333.62	0.389
334.09	0.387
334.56	0.383
335.02	0.381
335.49	0.378
335.95	0.378
336.42	0.376
336.88	0.370
337.35	0.366
337.81	0.365
338.28	0.367
338.74	0.366
339.20	0.370
339.67	0.366
340.13	0.365
340.60	0.363
341.06	0.358
341.53	0.358
341.99	0.356
342.46	0.353
342.92	0.350
343.39	0.351
343.85	0.348
344.32	0.346
344.78	0.348
345.25	0.349
345.71	0.348
346.17	0.351
346.64	0.348
347.10	0.345
347.57	0.339
348.03	0.332
348.50	0.332
348.96	0.330
349.43	0.329
349.89	0.331
350.35	0.330
350.82	0.322
351.28	0.318
351.75	0.318
352.21	0.319
352.67	0.311
353.14	0.313
353.60	0.310
354.07	0.303
354.53	0.305
355.00	0.300
355.46	0.295
355.92	0.290
356.39	0.292
356.85	0.283
357.31	0.277
357.78	0.277
358.24	0.270
358.71	0.269
359.17	0.261
359.63	0.255
360.10	0.250
360.56	0.246
361.03	0.241
361.49	0.237
361.95	0.229
362.42	0.226
362.88	0.222
363.34	0.217
363.81	0.207
364.27	0.206
364.73	0.201
365.20	0.198
365.66	0.192
366.12	0.192
366.59	0.188
367.05	0.188
367.51	0.187
367.98	0.181
368.44	0.179
368.90	0.178
369.37	0.178
369.83	0.176
370.29	0.173
370.76	0.175
371.22	0.172
371.68	0.170
372.15	0.169
372.61	0.164
373.07	0.166
373.54	0.167
374.00	0.165
374.46	0.167
374.92	0.167
375.39	0.167
375.85	0.169
376.31	0.166
376.78	0.165
377.24	0.164
377.70	0.166
378.16	0.162
378.63	0.163
379.09	0.163
379.55	0.163
380.01	0.163
380.48	0.162
380.94	0.162
381.40	0.161
381.87	0.161
382.33	0.158
382.79	0.160
383.25	0.161
383.72	0.159
384.18	0.160
384.64	0.162
385.10	0.157
385.56	0.156
386.03	0.159
386.49	0.157
386.95	0.158
387.41	0.158
387.88	0.154
388.34	0.155
388.80	0.155
389.26	0.155
389.72	0.156
390.19	0.154
390.65	0.153
391.11	0.152
391.57	0.154
392.04	0.152
392.50	0.155
392.96	0.155
393.42	0.152
393.88	0.153
394.34	0.151
394.81	0.152
395.27	0.150
395.73	0.147
396.19	0.150
396.65	0.149
397.12	0.146
397.58	0.150
398.04	0.150
398.50	0.150
398.96	0.148
399.42	0.150
399.89	0.148
400.35	0.148
400.81	0.144
401.27	0.147
401.73	0.146
402.19	0.146
402.65	0.143
403.12	0.145
403.58	0.143
404.04	0.140
404.50	0.142
404.96	0.142
405.42	0.143
405.88	0.141
406.34	0.144
406.81	0.142
407.27	0.138
407.73	0.136
408.19	0.138
408.65	0.134
409.11	0.138
409.57	0.135
410.03	0.140
410.49	0.141
410.96	0.137
411.42	0.138
411.88	0.137
412.34	0.133
412.80	0.135
413.26	0.137
413.72	0.134
414.18	0.132
414.64	0.133
415.10	0.134
415.56	0.133
416.02	0.134
416.48	0.132
416.95	0.135
417.41	0.132
417.87	0.134
418.33	0.131
418.79	0.130
419.25	0.132
419.71	0.130
420.17	0.129
420.63	0.127
421.09	0.127
421.55	0.130
422.01	0.131
422.47	0.132
422.93	0.130
423.39	0.131
423.85	0.129
424.31	0.130
424.77	0.130
425.23	0.128
425.69	0.129
426.15	0.130
426.61	0.128
427.07	0.123
427.53	0.127
427.99	0.128
428.45	0.129
428.91	0.127
429.37	0.125
429.83	0.128
430.29	0.127
430.75	0.130
431.21	0.129
431.67	0.130
432.13	0.129
432.59	0.125
433.05	0.127
433.51	0.126
433.97	0.122
434.43	0.127
434.89	0.129
435.35	0.125
435.81	0.124
436.27	0.126
436.73	0.125
437.19	0.126
437.65	0.122
438.11	0.126
438.57	0.122
439.03	0.122
439.48	0.124
439.94	0.125
440.40	0.121
440.86	0.122
441.32	0.123
441.78	0.123
442.24	0.126
442.70	0.125
443.16	0.124
443.62	0.125
444.08	0.124
444.54	0.120
444.99	0.124
445.45	0.120
445.91	0.120
446.37	0.123
446.83	0.121
447.29	0.119
447.75	0.119
448.21	0.124
448.67	0.121
449.12	0.121
449.58	0.121
450.04	0.120
450.50	0.121
450.96	0.119
451.42	0.121
451.88	0.122
452.34	0.120
452.79	0.120
453.25	0.123
453.71	0.120
454.17	0.119
454.63	0.120
455.09	0.121
455.55	0.119
456.00	0.118
456.46	0.120
456.92	0.121
457.38	0.121
457.84	0.122
458.30	0.123
458.75	0.119
459.21	0.120
459.67	0.119
460.13	0.119
460.59	0.121
461.04	0.121
461.50	0.120
461.96	0.119
462.42	0.121
462.88	0.117
463.33	0.119
463.79	0.121
464.25	0.119
464.71	0.120
465.17	0.119
465.62	0.119
466.08	0.120
466.54	0.120
467.00	0.120
467.46	0.119
467.91	0.119
468.37	0.116
468.83	0.120
469.29	0.120
469.74	0.119
470.20	0.119
470.66	0.117
471.12	0.121
471.57	0.118
472.03	0.120
472.49	0.122
472.95	0.121
473.40	0.120
473.86	0.120
474.32	0.119
474.78	0.118
475.23	0.121
475.69	0.119
476.15	0.121
476.60	0.121
477.06	0.119
477.52	0.117
477.98	0.119
478.43	0.120
478.89	0.119
479.35	0.120
479.80	0.118
480.26	0.117
480.72	0.118
481.18	0.119
481.63	0.120
482.09	0.119
482.55	0.118
483.00	0.117
483.46	0.121
483.92	0.119
484.37	0.119
484.83	0.116
485.29	0.119
485.74	0.117
486.20	0.120
486.66	0.117
487.11	0.117
487.57	0.118
488.03	0.118
488.48	0.120
488.94	0.116
489.40	0.117
489.85	0.118
490.31	0.119
490.77	0.116
491.22	0.117
491.68	0.117
492.13	0.118
492.59	0.120
493.05	0.118
493.50	0.118
493.96	0.117
494.42	0.117
494.87	0.118
495.33	0.116
495.78	0.116
496.24	0.118
496.70	0.118
497.15	0.117
497.61	0.119
498.06	0.117
498.52	0.118
498.98	0.115
499.43	0.118
499.89	0.119
500.34	0.116
500.80	0.117
501.25	0.117
501.71	0.114
502.17	0.115
502.62	0.116
503.08	0.114
503.53	0.115
503.99	0.117
504.44	0.115
504.90	0.114
505.36	0.115
505.81	0.116
506.27	0.114
506.72	0.114
507.18	0.114
507.63	0.115
508.09	0.116
508.54	0.113
509.00	0.114
509.45	0.114
509.91	0.114
510.36	0.114
510.82	0.116
511.27	0.113
511.73	0.114
512.19	0.114
512.64	0.111
513.10	0.115
513.55	0.114
514.01	0.115
514.46	0.115
514.92	0.113
515.37	0.114
515.83	0.113
516.28	0.113
516.73	0.113
517.19	0.114
517.64	0.114
518.10	0.113
518.55	0.112
519.01	0.112
519.46	0.112
519.92	0.113
520.37	0.113
520.83	0.112
521.28	0.113
521.74	0.112
522.19	0.113
522.65	0.111
523.10	0.111
523.55	0.113
524.01	0.111
524.46	0.112
524.92	0.112
525.37	0.112
525.83	0.110
526.28	0.111
526.73	0.112
527.19	0.112
527.64	0.112
528.10	0.113
528.55	0.111
529.01	0.111
529.46	0.113
529.91	0.112
530.37	0.112
530.82	0.113
531.28	0.113
531.73	0.112
532.18	0.114
532.64	0.113
533.09	0.114
533.54	0.112
534.00	0.112
534.45	0.114
534.91	0.112
535.36	0.113
535.81	0.112
536.27	0.115
536.72	0.114
537.17	0.114
537.63	0.113
538.08	0.117
538.54	0.113
538.99	0.116
539.44	0.114
539.90	0.116
540.35	0.116
540.80	0.115
541.26	0.116
541.71	0.119
542.16	0.117
542.62	0.121
543.07	0.117
543.52	0.118
543.98	0.117
544.43	0.117
544.88	0.116
545.34	0.119
545.79	0.119
546.24	0.120
546.69	0.118
547.15	0.120
547.60	0.119
548.05	0.122
548.51	0.121
548.96	0.122
549.41	0.122
549.86	0.123
550.32	0.123
550.77	0.122
551.22	0.123
551.68	0.125
552.13	0.124
552.58	0.126
553.03	0.124
553.49	0.124
553.94	0.125
554.39	0.128
554.84	0.128
555.30	0.128
555.75	0.128
556.20	0.128
556.65	0.130
557.11	0.130
557.56	0.130
558.01	0.134
558.46	0.132
558.92	0.131
559.37	0.135
559.82	0.133
560.27	0.132
560.72	0.137
561.18	0.136
561.63	0.136
562.08	0.136
562.53	0.135
562.99	0.137
563.44	0.138
563.89	0.139
564.34	0.139
564.79	0.141
565.25	0.141
565.70	0.143
566.15	0.144
566.60	0.143
567.05	0.143
567.50	0.146
567.96	0.144
568.41	0.145
568.86	0.147
569.31	0.146
569.76	0.147
570.21	0.149
570.67	0.149
571.12	0.151
571.57	0.152
572.02	0.152
572.47	0.153
572.92	0.153
573.37	0.158
573.83	0.156
574.28	0.157
574.73	0.157
575.18	0.158
575.63	0.160
576.08	0.161
576.53	0.161
576.98	0.161
577.44	0.165
577.89	0.164
578.34	0.166
578.79	0.165
579.24	0.166
579.69	0.169
580.14	0.172
580.59	0.171
581.04	0.172
581.49	0.175
581.95	0.175
582.40	0.176
582.85	0.179
583.30	0.178
583.75	0.182
584.20	0.184
584.65	0.182
585.10	0.188
585.55	0.187
586.00	0.188
586.45	0.191
586.90	0.192
587.35	0.195
587.80	0.195
588.25	0.196
588.71	0.198
589.16	0.202
589.61	0.203
590.06	0.206
590.51	0.207
590.96	0.209
591.41	0.212
591.86	0.213
592.31	0.214
592.76	0.217
593.21	0.219
593.66	0.222
594.11	0.225
594.56	0.227
595.01	0.229
595.46	0.230
595.91	0.232
596.36	0.234
596.81	0.239
597.26	0.239
597.71	0.240
598.16	0.243
598.61	0.248
599.06	0.247
599.51	0.248
599.96	0.252
600.41	0.254
600.86	0.257
601.31	0.258
601.76	0.261
602.21	0.264
602.65	0.267
603.10	0.266
603.55	0.269
604.00	0.274
604.45	0.274
604.90	0.274
605.35	0.281
605.80	0.280
606.25	0.282
606.70	0.284
607.15	0.285
607.60	0.286
608.05	0.289
608.50	0.291
608.95	0.292
609.39	0.295
609.84	0.295
610.29	0.298
610.74	0.297
611.19	0.298
611.64	0.301
612.09	0.303
612.54	0.304
612.99	0.304
613.44	0.304
613.88	0.307
614.33	0.305
614.78	0.309
615.23	0.309
615.68	0.308
616.13	0.308
616.58	0.313
617.03	0.312
617.47	0.313
617.92	0.315
618.37	0.316
618.82	0.315
619.27	0.314
619.72	0.316
620.17	0.317
620.61	0.318
621.06	0.317
621.51	0.315
621.96	0.319
622.41	0.319
622.86	0.320
623.30	0.321
623.75	0.321
624.20	0.324
624.65	0.324
625.10	0.324
625.54	0.325
625.99	0.323
626.44	0.328
626.89	0.327
627.34	0.328
627.78	0.329
628.23	0.330
628.68	0.332
629.13	0.331
629.58	0.334
630.02	0.336
630.47	0.338
630.92	0.339
631.37	0.341
631.81	0.345
632.26	0.345
632.71	0.347
633.16	0.350
633.61	0.350
634.05	0.353
634.50	0.354
634.95	0.356
635.40	0.361
635.84	0.365
636.29	0.365
636.74	0.369
637.18	0.370
637.63	0.373
638.08	0.375
638.53	0.377
638.97	0.378
639.42	0.386
639.87	0.386
640.32	0.389
640.76	0.393
641.21	0.397
641.66	0.399
642.10	0.405
642.55	0.407
643.00	0.408
643.44	0.413
643.89	0.419
644.34	0.421
644.79	0.423
645.23	0.428
645.68	0.431
646.13	0.433
646.57	0.437
647.02	0.442
647.47	0.446
647.91	0.450
648.36	0.451
648.81	0.455
649.25	0.458
649.70	0.460
650.15	0.468
650.59	0.472
651.04	0.475
651.48	0.475
651.93	0.481
652.38	0.485
652.82	0.487
653.27	0.485
653.72	0.494
654.16	0.496
654.61	0.500
655.06	0.502
655.50	0.505
655.95	0.507
656.39	0.508
656.84	0.511
657.29	0.518
657.73	0.516
658.18	0.520
658.62	0.525
659.07	0.529
659.52	0.526
659.96	0.532
660.41	0.533
660.85	0.536
661.30	0.536
661.74	0.541
662.19	0.543
662.64	0.541
663.08	0.540
663.53	0.542
663.97	0.544
664.42	0.540
664.86	0.543
665.31	0.545
665.75	0.542
666.20	0.542
666.65	0.542
667.09	0.545
667.54	0.537
667.98	0.538
668.43	0.535
668.87	0.534
669.32	0.532
669.76	0.529
670.21	0.531
670.65	0.523
671.10	0.518
671.54	0.515
671.99	0.513
672.43	0.501
672.88	0.497
673.32	0.492
673.77	0.485
674.21	0.479
674.66	0.469
675.10	0.463
675.55	0.454
675.99	0.447
676.44	0.438
676.88	0.431
677.33	0.420
677.77	0.416
678.22	0.404
678.66	0.394
679.11	0.387
679.55	0.376
679.99	0.367
680.44	0.359
680.88	0.349
681.33	0.340
681.77	0.332
682.22	0.319
682.66	0.311
683.11	0.302
683.55	0.295
683.99	0.289
684.44	0.280
684.88	0.272
685.33	0.261
685.77	0.252
686.21	0.245
686.66	0.236
687.10	0.229
687.55	0.224
687.99	0.215
688.44	0.209
688.88	0.202
689.32	0.198
689.77	0.191
690.21	0.186
690.65	0.179
691.10	0.175
691.54	0.169
691.99	0.163
692.43	0.159
692.87	0.155
693.32	0.150
693.76	0.146
694.20	0.141
694.65	0.139
695.09	0.135
695.53	0.130
695.98	0.126
696.42	0.127
696.86	0.123
697.31	0.123
697.75	0.117
698.19	0.115
698.64	0.113
699.08	0.109
699.52	0.107
699.97	0.105
700.41	0.104
700.85	0.102
701.30	0.097
701.74	0.099
702.18	0.093
702.63	0.094
703.07	0.091
703.51	0.091
703.96	0.090
704.40	0.089
704.84	0.089
705.28	0.086
705.73	0.087
706.17	0.084
706.61	0.085
707.06	0.083
707.50	0.083
707.94	0.083
708.38	0.080
708.83	0.079
709.27	0.079
709.71	0.078
710.15	0.077
710.60	0.078
711.04	0.075
711.48	0.077
711.92	0.075
712.37	0.073
712.81	0.075
713.25	0.074
713.69	0.071
714.13	0.072
714.58	0.072
715.02	0.070
715.46	0.072
715.90	0.072
716.35	0.072
716.79	0.074
717.23	0.073
717.67	0.070
718.11	0.069
718.56	0.072
719.00	0.070
719.44	0.070
719.88	0.072
720.32	0.072
720.76	0.070
721.21	0.070
721.65	0.070
722.09	0.070
722.53	0.071
722.97	0.069
723.41	0.069
723.86	0.070
724.30	0.068
724.74	0.072
725.18	0.068
725.62	0.067
726.06	0.069
726.50	0.071
726.95	0.068
727.39	0.072
727.83	0.070
728.27	0.069
728.71	0.070
729.15	0.068
729.59	0.067
730.03	0.068
730.48	0.068
730.92	0.070
731.36	0.070
731.80	0.070
732.24	0.073
732.68	0.072
733.12	0.069
733.56	0.070
734.00	0.073
734.44	0.071
734.89	0.072
735.33	0.069
735.77	0.072
736.21	0.070
736.65	0.072
737.09	0.072
737.53	0.070
737.97	0.071
738.41	0.071
738.85	0.073
739.29	0.070
739.73	0.071
740.17	0.069
740.61	0.071
741.05	0.072
741.49	0.072
741.93	0.071
742.37	0.072
742.81	0.071
743.26	0.072
743.70	0.072
744.14	0.071
744.58	0.073
745.02	0.069
745.46	0.073
745.90	0.070
746.34	0.071
746.78	0.073
747.22	0.071
747.66	0.072
748.10	0.071
748.54	0.072
748.98	0.071
749.42	0.072
749.86	0.071
750.29	0.072
750.73	0.070
751.17	0.071
751.61	0.074
752.05	0.070
752.49	0.071
752.93	0.068
753.37	0.071
753.81	0.070
754.25	0.070
754.69	0.073
755.13	0.071
755.57	0.070
756.01	0.068
756.45	0.066
756.89	0.069
757.33	0.069
757.77	0.071
758.21	0.072
758.64	0.067
759.08	0.068
759.52	0.070
759.96	0.069
760.40	0.070
760.84	0.068
761.28	0.068
761.72	0.068
762.16	0.069
762.60	0.067
763.03	0.072
763.47	0.069
763.91	0.070
764.35	0.067
764.79	0.066
765.23	0.070
765.67	0.066
766.11	0.070
766.54	0.068
766.98	0.066
767.42	0.066
767.86	0.068
768.30	0.067
768.74	0.067
769.17	0.068
769.61	0.069
770.05	0.069
770.49	0.071
770.93	0.068
771.37	0.067
771.80	0.064
772.24	0.065
772.68	0.067
773.12	0.065
773.56	0.071
774.00	0.070
774.43	0.069
774.87	0.066
775.31	0.069
775.75	0.066
776.19	0.067
776.62	0.067
777.06	0.068
777.50	0.069
777.94	0.067
778.37	0.067
778.81	0.066
779.25	0.065
779.69	0.067
780.13	0.069
780.56	0.064
781.00	0.066
781.44	0.068
781.88	0.065
782.31	0.063
782.75	0.063
783.19	0.068
783.63	0.067
784.06	0.065
784.50	0.065
784.94	0.067
785.37	0.063
785.81	0.065
786.25	0.066
786.69	0.065
787.12	0.070
787.56	0.067
788.00	0.066
788.43	0.067
788.87	0.065
789.31	0.067
789.75	0.067
790.18	0.065
790.62	0.063
791.06	0.064
791.49	0.067
791.93	0.064
792.37	0.063
792.80	0.068
793.24	0.062
793.68	0.066
794.11	0.066
794.55	0.068
794.99	0.064
795.42	0.067
795.86	0.071
796.30	0.066
796.73	0.063
797.17	0.062
797.61	0.065
798.04	0.067
798.48	0.064
798.91	0.066
799.35	0.068
799.79	0.065
800.22	0.067
800.66	0.066
801.10	0.070
801.53	0.072
801.97	0.067
802.40	0.062
802.84	0.066
803.28	0.065
803.71	0.061
804.15	0.066
804.58	0.070
805.02	0.065
805.46	0.065
805.89	0.065
806.33	0.069
806.76	0.066
807.20	0.065
807.63	0.066
808.07	0.067
808.51	0.067
808.94	0.066
809.38	0.066
809.81	0.067
810.25	0.062
810.68	0.066
811.12	0.066
811.55	0.067
811.99	0.063
812.42	0.062
812.86	0.069
813.29	0.066
813.73	0.063
814.17	0.058
814.60	0.065
815.04	0.064
815.47	0.064
815.91	0.063
816.34	0.067
816.78	0.064
817.21	0.070
817.65	0.069
818.08	0.065
818.52	0.063
818.95	0.066
819.39	0.070
819.82	0.066
820.25	0.066
820.69	0.063
821.12	0.070
821.56	0.063
821.99	0.069
822.43	0.069
822.86	0.070
823.30	0.064
823.73	0.066
824.17	0.068
824.60	0.064
825.04	0.066
825.47	0.065
825.90	0.063
826.34	0.066
826.77	0.070
827.21	0.068
827.64	0.065
828.08	0.070
828.51	0.067
828.94	0.065
829.38	0.068
829.81	0.071
830.25	0.071
830.68	0.068
831.11	0.071
831.55	0.069
831.98	0.071
832.42	0.068
832.85	0.073
833.28	0.071
833.72	0.076
834.15	0.075
834.58	0.070
835.02	0.070
835.45	0.073
835.88	0.075
836.32	0.075
836.75	0.070
837.19	0.070
837.62	0.068
838.05	0.072
838.49	0.071
838.92	0.071
839.35	0.074
839.79	0.074
840.22	0.071
840.65	0.073
841.09	0.076
841.52	0.075
841.95	0.075
842.39	0.072
842.82	0.079
843.25	0.076
843.68	0.073
844.12	0.074
844.55	0.073
844.98	0.075
845.42	0.073
845.85	0.070
846.28	0.076
846.71	0.068
847.15	0.074
847.58	0.075
848.01	0.073
848.45	0.073
848.88	0.072
849.31	0.072
849.74	0.073
850.18	0.072
850.61	0.076
851.04	0.074
851.47	0.074
851.91	0.072
852.34	0.074
852.77	0.071
853.20	0.079
853.64	0.075
854.07	0.074
854.50	0.073
854.93	0.068
855.36	0.076
855.80	0.072
856.23	0.077
856.66	0.076
857.09	0.077
857.52	0.076
857.96	0.073
858.39	0.078
858.82	0.071
859.25	0.077
859.68	0.074
860.12	0.075
860.55	0.073
860.98	0.078
861.41	0.075
861.84	0.077
862.27	0.080
862.71	0.076
863.14	0.077
863.57	0.076
864.00	0.077
864.43	0.071
864.86	0.082
865.30	0.073
865.73	0.077
866.16	0.077
866.59	0.079
867.02	0.079
867.45	0.077
867.88	0.083
868.31	0.080
868.75	0.077
869.18	0.077
869.61	0.079
870.04	0.081
870.47	0.079
870.90	0.083
871.33	0.078
871.76	0.074
872.19	0.071
872.62	0.081
873.06	0.083
873.49	0.079
873.92	0.080
874.35	0.080
874.78	0.081
875.21	0.077
875.64	0.083
876.07	0.091
876.50	0.077
876.93	0.077
877.36	0.083
877.79	0.084
878.22	0.075
878.65	0.083
879.08	0.088
879.51	0.078
879.94	0.077
880.37	0.079
880.80	0.080
881.23	0.084
881.67	0.078
882.10	0.079
882.53	0.084
882.96	0.085
883.39	0.088
883.82	0.085
884.25	0.084
884.68	0.084
885.11	0.084
885.54	0.085
885.97	0.077
886.39	0.082
886.82	0.078
887.25	0.086
887.68	0.082
888.11	0.081
888.54	0.084
888.97	0.081
889.40	0.087
889.83	0.086
890.26	0.088
890.69	0.081
891.12	0.088
891.55	0.083
891.98	0.082
892.41	0.083
892.84	0.088
893.27	0.086
893.70	0.082
894.13	0.088
894.56	0.083
894.98	0.087
895.41	0.090
895.84	0.092
896.27	0.085
896.70	0.086
897.13	0.084
897.56	0.086
897.99	0.083
898.42	0.086
898.85	0.089
899.27	0.091
899.70	0.091
900.13	0.090
900.56	0.092
900.99	0.091
901.42	0.082
901.85	0.092
902.28	0.093
902.70	0.090
903.13	0.087
903.56	0.093
903.99	0.087
904.42	0.089
904.85	0.093
905.27	0.088
905.70	0.091
906.13	0.090
906.56	0.092
906.99	0.089
907.42	0.087
907.84	0.089
908.27	0.092
908.70	0.089
909.13	0.089
909.56	0.088
909.98	0.090
910.41	0.092
910.84	0.089
911.27	0.087
911.70	0.088
912.12	0.084
912.55	0.088
912.98	0.088
913.41	0.090
913.84	0.087
914.26	0.089
914.69	0.087
915.12	0.091
915.55	0.082
915.97	0.089
916.40	0.089
916.83	0.089
917.26	0.088
917.68	0.090
918.11	0.089
918.54	0.090
918.97	0.093
919.39	0.090
919.82	0.093
920.25	0.090
920.67	0.088
921.10	0.089
921.53	0.090
921.96	0.093
922.38	0.093
922.81	0.092
923.24	0.094
923.66	0.095
924.09	0.094
924.52	0.097
924.94	0.099
925.37	0.100
925.80	0.098
926.22	0.098
926.65	0.097
927.08	0.098
927.50	0.102
927.93	0.102
928.36	0.102
928.78	0.104
929.21	0.103
929.64	0.108
930.06	0.102
930.49	0.105
930.92	0.103
931.34	0.108
931.77	0.106
932.20	0.108
932.62	0.105
933.05	0.107
933.47	0.109
933.90	0.110
934.33	0.112
934.75	0.107
935.18	0.117
935.61	0.116
936.03	0.115
936.46	0.117
936.88	0.118
937.31	0.122
937.73	0.126
938.16	0.125
938.59	0.127
939.01	0.132
939.44	0.130
939.86	0.128
940.29	0.132
940.71	0.137
941.14	0.139
941.57	0.133
941.99	0.139
942.42	0.142
942.84	0.138
943.27	0.146
943.69	0.143
944.12	0.149
944.54	0.149
944.97	0.151
945.39	0.152
945.82	0.158
946.24	0.151
946.67	0.163
947.09	0.161
947.52	0.158
947.94	0.166
948.37	0.166
948.79	0.169
949.22	0.164
949.64	0.179
950.07	0.173
950.49	0.182
950.92	0.179
951.34	0.187
951.77	0.193
952.19	0.186
952.62	0.189
953.04	0.194
953.47	0.196
953.89	0.206
954.32	0.199
954.74	0.207
955.17	0.205
955.59	0.204
956.01	0.219
956.44	0.218
956.86	0.214
957.29	0.223
957.71	0.221
958.14	0.223
958.56	0.226
958.98	0.233
959.41	0.234
959.83	0.236
960.26	0.237
960.68	0.239
961.10	0.241
961.53	0.243
961.95	0.240
962.38	0.246
962.80	0.247
963.22	0.247
963.65	0.250
964.07	0.249
964.50	0.247
964.92	0.251
965.34	0.244
965.77	0.246
966.19	0.250
966.61	0.250
967.04	0.254
967.46	0.253
967.88	0.250
968.31	0.256
968.73	0.251
969.15	0.249
969.58	0.258
970.00	0.254
970.42	0.252
970.85	0.258
971.27	0.256
971.69	0.259
972.12	0.258
972.54	0.253
972.96	0.252
973.39	0.257
973.81	0.254
974.23	0.263
974.65	0.257
975.08	0.260
975.50	0.263
975.92	0.257
976.35	0.258
976.77	0.260
977.19	0.260
977.61	0.256
978.04	0.253
978.46	0.248
978.88	0.253
979.30	0.258
979.73	0.248
980.15	0.259
980.57	0.254
980.99	0.262
981.42	0.252
981.84	0.261
982.26	0.264
982.68	0.256
983.11	0.256
983.53	0.257
983.95	0.257
984.37	0.254
984.79	0.254
985.22	0.248
985.64	0.258
986.06	0.244
986.48	0.255
986.90	0.249
987.33	0.255
987.75	0.259
988.17	0.256
988.59	0.252
989.01	0.243
989.43	0.245
989.86	0.254
990.28	0.242
990.70	0.248
991.12	0.248
991.54	0.251
991.96	0.246
992.39	0.236
992.81	0.244
993.23	0.248
993.65	0.239
994.07	0.244
994.49	0.240
994.91	0.238
995.34	0.238
995.76	0.245
996.18	0.237
996.60	0.233
997.02	0.232
997.44	0.243
997.86	0.240
998.28	0.227
998.70	0.229
999.12	0.231
999.55	0.231
999.97	0.227
1000.39	0.228
1000.81	0.233
1001.23	0.224
1001.65	0.232
1002.07	0.228
1002.49	0.218
1002.91	0.230
1003.33	0.228
1003.75	0.227
1004.17	0.217
1004.59	0.228
1005.01	0.226
1005.43	0.220
1005.85	0.221
1006.28	0.219
1006.70	0.226
1007.12	0.221
1007.54	0.218
1007.96	0.217
1008.38	0.212
1008.80	0.220
1009.22	0.216
1009.64	0.208
1010.06	0.219
1010.48	0.215
1010.90	0.209
1011.32	0.218
1011.74	0.214
1012.16	0.211
1012.58	0.217
1013.00	0.205
1013.42	0.201
1013.84	0.201
1014.26	0.208
1014.67	0.197
1015.09	0.199
1015.51	0.205
1015.93	0.199
1016.35	0.189
1016.77	0.195
1017.19	0.200
1017.61	0.180
1018.03	0.187
1018.45	0.194
1018.87	0.197
1019.29	0.192
1019.71	0.184
1020.13	0.191
1020.55	0.201
1020.97	0.178
1021.38	0.184
1021.80	0.183
1022.22	0.178
1022.64	0.191
1023.06	0.183
1023.48	0.171
1023.90	0.180
1024.32	0.185
1024.74	0.178
1025.15	0.179
1025.57	0.183
1025.99	0.187
1026.41	0.180
1026.83	0.179
1027.25	0.186
1027.67	0.181
1028.08	0.171
1028.50	0.173
1028.92	0.169
1029.34	0.164
1029.76	0.166
1030.18	0.168
1030.60	0.166
1031.01	0.179
1031.43	0.160
1031.85	0.160
1032.27	0.170
1032.69	0.158
1033.10	0.164
1033.52	0.166
1033.94	0.176
1034.36	0.165
1034.78	0.170
1035.19	0.157
1035.61	0.163
1036.03	0.155
1036.45	0.164
1036.87	0.167
1037.28	0.151
1037.70	0.149
1038.12	0.154
1038.54	0.158
1038.95	0.155
1039.37	0.144
1039.79	0.149
1040.21	0.152
1040.62	0.130
1041.04	0.173
1041.46	0.174
1041.88	0.155
1042.29	0.149
1042.71	0.157
1043.13	0.133
1043.55	0.143
1043.96	0.147
1044.38	0.150
1044.80	0.168
1045.21	0.152
1045.63	0.143
1046.05	0.161
1046.47	0.140
1046.88	0.154
1047.30	0.140
1047.72	0.150
1048.13	0.140
1048.55	0.162
1048.97	0.145
1049.38	0.150
1049.80	0.125
1050.22	0.150
1050.63	0.149
1051.05	0.117
1051.47	0.130
1051.88	0.134
1052.30	0.134
1052.72	0.128
1053.13	0.142
1053.55	0.143
1053.97	0.145
1054.38	0.120
1054.80	0.162
1055.21	0.139
1055.63	0.121
1056.05	0.118
1056.46	0.167
1056.88	0.148
1057.29	0.145
1057.71	0.163
1058.13	0.140
1058.54	0.123
1058.96	0.129
1059.37	0.161
1059.79	0.149
1060.21	0.150
1060.62	0.128
1061.04	0.154
1061.45	0.181
1061.87	0.190
1062.28	0.185
1062.70	0.146
1063.12	0.176
1063.53	0.173
1063.95	0.239
1064.36	0.184
1064.78	0.133
1065.19	0.144
1065.61	0.201
1066.02	0.110
1066.44	0.180
1066.85	0.209
1067.27	0.169
1067.68	0.137
1068.10	0.127
1068.51	0.184
1068.93	0.161
1069.35	0.207
1069.76	0.231
1070.17	0.155
1070.59	0.184
1071.00	0.231
1071.42	0.267
1071.83	0.209
1072.25	0.148
1072.66	0.236
1073.08	0.178
1073.49	0.219
1073.91	0.191
1074.32	0.303
1074.74	0.293
1075.15	0.166
1075.57	0.328
1075.98	0.424
1076.40	0.406
1076.81	0.221
1077.22	0.476
1077.64	0.483
1078.05	0.342
1078.47	0.234
1078.88	0.438
1079.30	0.221
1079.71	0.209
1080.12	0.532
1080.54	0.405
1080.95	0.377
1081.37	0.361
1081.78	-0.000
1082.19	0.412
1082.61	0.420
1083.02	0.377
1083.44	1.138
1083.85	0.590
1084.26	0.912
1084.68	-0.000
1085.09	0.950
1085.50	0.312
1085.92	0.527
1086.33	-0.000
1086.74	0.456
1087.16	1.020
1087.57	-0.000
1087.98	-0.000
1088.40	0.532
1088.81	-0.000
1089.22	1.811
1089.64	0.651
1090.05	0.388
1090.46	-0.000
1090.88	-0.000
1091.29	-0.000
1091.70	0.337
1092.12	0.555
1092.53	-0.000
1092.94	0.651
1093.36	0.792
1093.77	-0.000
1094.18	0.464
1094.59	-0.000
1095.01	0.851
1095.42	-0.000
1095.83	-0.000
1096.25	0.535
1096.66	-0.000
1097.07	0.783
1097.48	0.653
1097.90	-0.000
1098.31	-0.000
1098.72	-0.000
1099.13	0.484
>>>>>End Processed Spectral Data<<<<<
