SpectraSuite Data File
++++++++++++++++++++++++++++++++++++
Date: Wed May 04 14:55:29 CEST 2016
User: spectrasuite
Dark Spectrum Present: Yes
Reference Spectrum Present: Yes
Number of Sampled Component Spectra: 1
Spectrometers: HR+C0708
Integration Time (usec): 1000 (HR+C0708)
Spectra Averaged: 10 (HR+C0708)
Boxcar Smoothing: 0 (HR+C0708)
Correct for Electrical Dark: No (HR+C0708)
Strobe/Lamp Enabled: No (HR+C0708)
Correct for Detector Non-linearity: No (HR+C0708)
Correct for Stray Light: No (HR+C0708)
Number of Pixels in Processed Spectrum: 2048
>>>>>Begin Processed Spectral Data<<<<<
188.76	0.959
189.23	-0.000
189.70	-0.000
190.17	0.841
190.64	-0.000
191.12	-0.000
191.59	-0.000
192.06	-0.000
192.53	-0.000
193.01	-0.000
193.48	-0.000
193.95	-0.000
194.42	-0.000
194.90	-0.000
195.37	-0.000
195.84	-0.000
196.31	-0.000
196.78	-0.000
197.26	-0.000
197.73	-0.000
198.20	0.747
198.67	-0.000
199.14	-0.000
199.62	-0.000
200.09	-0.000
200.56	0.935
201.03	0.746
201.50	1.601
201.97	0.748
202.45	-0.000
202.92	0.892
203.39	0.616
203.86	-0.000
204.33	0.686
204.80	0.900
205.28	-0.000
205.75	0.774
206.22	0.738
206.69	1.156
207.16	0.628
207.63	1.189
208.11	1.599
208.58	0.658
209.05	2.401
209.52	1.191
209.99	0.738
210.46	1.283
210.93	-0.000
211.41	0.690
211.88	0.917
212.35	0.993
212.82	1.441
213.29	1.238
213.76	1.055
214.23	1.555
214.70	1.099
215.18	0.722
215.65	0.982
216.12	0.596
216.59	0.748
217.06	0.891
217.53	0.935
218.00	0.544
218.47	1.795
218.94	0.827
219.41	0.472
219.89	1.728
220.36	0.410
220.83	0.974
221.30	1.144
221.77	0.693
222.24	1.365
222.71	0.855
223.18	0.815
223.65	0.919
224.12	1.001
224.59	0.838
225.06	1.963
225.54	0.853
226.01	1.298
226.48	2.015
226.95	1.466
227.42	1.571
227.89	1.446
228.36	1.285
228.83	1.681
229.30	1.375
229.77	1.712
230.24	1.628
230.71	1.412
231.18	1.552
231.65	-0.000
232.12	1.767
232.59	2.956
233.06	2.153
233.53	1.969
234.00	1.995
234.47	2.416
234.94	2.095
235.41	2.341
235.88	1.982
236.35	4.096
236.82	3.230
237.29	1.953
237.76	2.317
238.23	2.680
238.70	2.463
239.17	2.554
239.64	3.025
240.11	2.458
240.58	2.306
241.05	2.393
241.52	2.507
241.99	2.393
242.46	2.256
242.93	2.507
243.40	2.842
243.87	2.419
244.34	2.621
244.81	2.544
245.28	2.515
245.75	2.621
246.22	2.626
246.69	3.143
247.16	2.615
247.63	2.530
248.10	2.442
248.57	-0.000
249.04	2.679
249.51	2.750
249.98	2.880
250.45	2.374
250.92	3.360
251.39	2.313
251.85	2.280
252.32	2.156
252.79	1.970
253.26	1.890
253.73	1.811
254.20	1.683
254.67	1.582
255.14	1.524
255.61	1.458
256.08	1.401
256.55	1.330
257.02	1.276
257.49	1.232
257.95	1.178
258.42	1.140
258.89	1.114
259.36	1.082
259.83	1.052
260.30	1.030
260.77	1.001
261.24	0.984
261.71	0.956
262.17	0.936
262.64	0.927
263.11	0.900
263.58	0.889
264.05	0.875
264.52	0.863
264.99	0.845
265.46	0.833
265.92	0.818
266.39	0.807
266.86	0.798
267.33	0.788
267.80	0.776
268.27	0.762
268.74	0.756
269.20	0.746
269.67	0.735
270.14	0.730
270.61	0.725
271.08	0.713
271.55	0.708
272.01	0.701
272.48	0.692
272.95	0.688
273.42	0.678
273.89	0.676
274.36	0.670
274.82	0.659
275.29	0.660
275.76	0.652
276.23	0.651
276.70	0.642
277.16	0.642
277.63	0.634
278.10	0.636
278.57	0.630
279.04	0.628
279.50	0.626
279.97	0.623
280.44	0.623
280.91	0.619
281.38	0.618
281.84	0.616
282.31	0.614
282.78	0.614
283.25	0.611
283.72	0.613
284.18	0.609
284.65	0.611
285.12	0.609
285.59	0.611
286.05	0.613
286.52	0.610
286.99	0.613
287.46	0.611
287.92	0.610
288.39	0.609
288.86	0.610
289.33	0.609
289.79	0.609
290.26	0.608
290.73	0.605
291.20	0.602
291.66	0.603
292.13	0.601
292.60	0.599
293.07	0.593
293.53	0.586
294.00	0.584
294.47	0.581
294.93	0.578
295.40	0.567
295.87	0.560
296.34	0.553
296.80	0.545
297.27	0.534
297.74	0.530
298.20	0.524
298.67	0.509
299.14	0.508
299.60	0.498
300.07	0.495
300.54	0.483
301.01	0.476
301.47	0.469
301.94	0.459
302.41	0.450
302.87	0.446
303.34	0.436
303.81	0.432
304.27	0.426
304.74	0.416
305.21	0.407
305.67	0.402
306.14	0.397
306.61	0.390
307.07	0.383
307.54	0.379
308.01	0.373
308.47	0.367
308.94	0.362
309.40	0.358
309.87	0.355
310.34	0.353
310.80	0.347
311.27	0.342
311.74	0.342
312.20	0.337
312.67	0.336
313.13	0.331
313.60	0.330
314.07	0.325
314.53	0.327
315.00	0.319
315.47	0.320
315.93	0.320
316.40	0.314
316.86	0.313
317.33	0.313
317.80	0.311
318.26	0.309
318.73	0.309
319.19	0.307
319.66	0.304
320.13	0.302
320.59	0.300
321.06	0.304
321.52	0.298
321.99	0.301
322.45	0.296
322.92	0.296
323.39	0.294
323.85	0.295
324.32	0.291
324.78	0.289
325.25	0.285
325.71	0.290
326.18	0.284
326.64	0.283
327.11	0.280
327.58	0.281
328.04	0.284
328.51	0.277
328.97	0.280
329.44	0.276
329.90	0.271
330.37	0.272
330.83	0.271
331.30	0.270
331.76	0.263
332.23	0.267
332.69	0.264
333.16	0.263
333.62	0.260
334.09	0.259
334.56	0.256
335.02	0.253
335.49	0.250
335.95	0.248
336.42	0.247
336.88	0.243
337.35	0.243
337.81	0.241
338.28	0.242
338.74	0.242
339.20	0.242
339.67	0.241
340.13	0.241
340.60	0.237
341.06	0.234
341.53	0.231
341.99	0.231
342.46	0.229
342.92	0.228
343.39	0.226
343.85	0.225
344.32	0.222
344.78	0.221
345.25	0.226
345.71	0.224
346.17	0.226
346.64	0.229
347.10	0.222
347.57	0.219
348.03	0.216
348.50	0.218
348.96	0.216
349.43	0.218
349.89	0.218
350.35	0.217
350.82	0.212
351.28	0.215
351.75	0.214
352.21	0.214
352.67	0.209
353.14	0.213
353.60	0.208
354.07	0.207
354.53	0.205
355.00	0.206
355.46	0.206
355.92	0.201
356.39	0.205
356.85	0.199
357.31	0.194
357.78	0.194
358.24	0.199
358.71	0.198
359.17	0.196
359.63	0.195
360.10	0.194
360.56	0.191
361.03	0.192
361.49	0.189
361.95	0.187
362.42	0.189
362.88	0.191
363.34	0.192
363.81	0.188
364.27	0.184
364.73	0.188
365.20	0.185
365.66	0.186
366.12	0.185
366.59	0.185
367.05	0.182
367.51	0.182
367.98	0.181
368.44	0.184
368.90	0.180
369.37	0.181
369.83	0.182
370.29	0.178
370.76	0.177
371.22	0.176
371.68	0.178
372.15	0.175
372.61	0.177
373.07	0.177
373.54	0.176
374.00	0.175
374.46	0.175
374.92	0.176
375.39	0.174
375.85	0.174
376.31	0.175
376.78	0.173
377.24	0.171
377.70	0.173
378.16	0.174
378.63	0.173
379.09	0.174
379.55	0.172
380.01	0.173
380.48	0.174
380.94	0.171
381.40	0.173
381.87	0.174
382.33	0.170
382.79	0.168
383.25	0.170
383.72	0.171
384.18	0.170
384.64	0.170
385.10	0.171
385.56	0.168
386.03	0.170
386.49	0.168
386.95	0.168
387.41	0.168
387.88	0.166
388.34	0.167
388.80	0.168
389.26	0.169
389.72	0.169
390.19	0.168
390.65	0.164
391.11	0.165
391.57	0.166
392.04	0.166
392.50	0.164
392.96	0.165
393.42	0.164
393.88	0.168
394.34	0.160
394.81	0.165
395.27	0.165
395.73	0.159
396.19	0.162
396.65	0.164
397.12	0.160
397.58	0.160
398.04	0.162
398.50	0.162
398.96	0.161
399.42	0.163
399.89	0.162
400.35	0.163
400.81	0.159
401.27	0.160
401.73	0.161
402.19	0.161
402.65	0.154
403.12	0.159
403.58	0.158
404.04	0.153
404.50	0.155
404.96	0.154
405.42	0.155
405.88	0.155
406.34	0.156
406.81	0.159
407.27	0.153
407.73	0.151
408.19	0.155
408.65	0.151
409.11	0.151
409.57	0.154
410.03	0.154
410.49	0.155
410.96	0.151
411.42	0.152
411.88	0.148
412.34	0.148
412.80	0.151
413.26	0.151
413.72	0.148
414.18	0.147
414.64	0.148
415.10	0.150
415.56	0.148
416.02	0.146
416.48	0.148
416.95	0.150
417.41	0.147
417.87	0.148
418.33	0.149
418.79	0.145
419.25	0.148
419.71	0.145
420.17	0.146
420.63	0.142
421.09	0.143
421.55	0.145
422.01	0.146
422.47	0.148
422.93	0.148
423.39	0.146
423.85	0.142
424.31	0.145
424.77	0.146
425.23	0.143
425.69	0.146
426.15	0.147
426.61	0.146
427.07	0.143
427.53	0.143
427.99	0.145
428.45	0.146
428.91	0.142
429.37	0.143
429.83	0.143
430.29	0.145
430.75	0.143
431.21	0.145
431.67	0.147
432.13	0.144
432.59	0.146
433.05	0.144
433.51	0.140
433.97	0.141
434.43	0.145
434.89	0.149
435.35	0.142
435.81	0.141
436.27	0.144
436.73	0.143
437.19	0.144
437.65	0.140
438.11	0.141
438.57	0.144
439.03	0.143
439.48	0.143
439.94	0.145
440.40	0.139
440.86	0.137
441.32	0.142
441.78	0.139
442.24	0.138
442.70	0.144
443.16	0.141
443.62	0.140
444.08	0.140
444.54	0.138
444.99	0.140
445.45	0.135
445.91	0.137
446.37	0.140
446.83	0.137
447.29	0.140
447.75	0.141
448.21	0.142
448.67	0.139
449.12	0.140
449.58	0.139
450.04	0.138
450.50	0.139
450.96	0.136
451.42	0.140
451.88	0.139
452.34	0.137
452.79	0.139
453.25	0.139
453.71	0.138
454.17	0.136
454.63	0.138
455.09	0.138
455.55	0.138
456.00	0.135
456.46	0.140
456.92	0.139
457.38	0.135
457.84	0.139
458.30	0.137
458.75	0.136
459.21	0.137
459.67	0.135
460.13	0.138
460.59	0.138
461.04	0.135
461.50	0.135
461.96	0.137
462.42	0.137
462.88	0.135
463.33	0.135
463.79	0.137
464.25	0.136
464.71	0.135
465.17	0.134
465.62	0.136
466.08	0.137
466.54	0.140
467.00	0.140
467.46	0.137
467.91	0.138
468.37	0.138
468.83	0.138
469.29	0.138
469.74	0.136
470.20	0.138
470.66	0.137
471.12	0.137
471.57	0.137
472.03	0.137
472.49	0.137
472.95	0.139
473.40	0.136
473.86	0.136
474.32	0.138
474.78	0.137
475.23	0.139
475.69	0.137
476.15	0.140
476.60	0.137
477.06	0.139
477.52	0.135
477.98	0.136
478.43	0.137
478.89	0.134
479.35	0.139
479.80	0.138
480.26	0.134
480.72	0.137
481.18	0.135
481.63	0.139
482.09	0.140
482.55	0.135
483.00	0.135
483.46	0.135
483.92	0.136
484.37	0.134
484.83	0.135
485.29	0.135
485.74	0.135
486.20	0.136
486.66	0.135
487.11	0.135
487.57	0.134
488.03	0.134
488.48	0.138
488.94	0.133
489.40	0.134
489.85	0.134
490.31	0.135
490.77	0.134
491.22	0.136
491.68	0.135
492.13	0.136
492.59	0.135
493.05	0.134
493.50	0.135
493.96	0.135
494.42	0.138
494.87	0.136
495.33	0.133
495.78	0.134
496.24	0.136
496.70	0.136
497.15	0.134
497.61	0.134
498.06	0.135
498.52	0.136
498.98	0.135
499.43	0.134
499.89	0.136
500.34	0.132
500.80	0.134
501.25	0.133
501.71	0.131
502.17	0.134
502.62	0.134
503.08	0.131
503.53	0.132
503.99	0.134
504.44	0.133
504.90	0.132
505.36	0.133
505.81	0.134
506.27	0.133
506.72	0.132
507.18	0.133
507.63	0.132
508.09	0.131
508.54	0.131
509.00	0.133
509.45	0.133
509.91	0.132
510.36	0.132
510.82	0.133
511.27	0.131
511.73	0.132
512.19	0.131
512.64	0.129
513.10	0.131
513.55	0.131
514.01	0.133
514.46	0.132
514.92	0.132
515.37	0.132
515.83	0.130
516.28	0.132
516.73	0.131
517.19	0.133
517.64	0.132
518.10	0.133
518.55	0.133
519.01	0.131
519.46	0.132
519.92	0.130
520.37	0.128
520.83	0.130
521.28	0.129
521.74	0.129
522.19	0.130
522.65	0.129
523.10	0.128
523.55	0.132
524.01	0.128
524.46	0.130
524.92	0.129
525.37	0.130
525.83	0.131
526.28	0.131
526.73	0.132
527.19	0.130
527.64	0.132
528.10	0.132
528.55	0.129
529.01	0.130
529.46	0.132
529.91	0.129
530.37	0.129
530.82	0.129
531.28	0.130
531.73	0.131
532.18	0.132
532.64	0.131
533.09	0.133
533.54	0.130
534.00	0.132
534.45	0.131
534.91	0.129
535.36	0.128
535.81	0.129
536.27	0.131
536.72	0.131
537.17	0.132
537.63	0.132
538.08	0.133
538.54	0.133
538.99	0.134
539.44	0.132
539.90	0.133
540.35	0.131
540.80	0.131
541.26	0.134
541.71	0.137
542.16	0.134
542.62	0.135
543.07	0.135
543.52	0.135
543.98	0.134
544.43	0.136
544.88	0.134
545.34	0.137
545.79	0.135
546.24	0.137
546.69	0.136
547.15	0.136
547.60	0.138
548.05	0.138
548.51	0.137
548.96	0.140
549.41	0.138
549.86	0.139
550.32	0.141
550.77	0.140
551.22	0.140
551.68	0.139
552.13	0.141
552.58	0.142
553.03	0.142
553.49	0.141
553.94	0.142
554.39	0.142
554.84	0.144
555.30	0.143
555.75	0.142
556.20	0.145
556.65	0.145
557.11	0.147
557.56	0.146
558.01	0.148
558.46	0.146
558.92	0.149
559.37	0.148
559.82	0.149
560.27	0.150
560.72	0.150
561.18	0.151
561.63	0.153
562.08	0.150
562.53	0.151
562.99	0.152
563.44	0.153
563.89	0.154
564.34	0.155
564.79	0.156
565.25	0.156
565.70	0.157
566.15	0.156
566.60	0.159
567.05	0.159
567.50	0.162
567.96	0.161
568.41	0.160
568.86	0.161
569.31	0.162
569.76	0.161
570.21	0.164
570.67	0.161
571.12	0.164
571.57	0.165
572.02	0.166
572.47	0.165
572.92	0.166
573.37	0.169
573.83	0.170
574.28	0.169
574.73	0.169
575.18	0.172
575.63	0.172
576.08	0.172
576.53	0.173
576.98	0.174
577.44	0.177
577.89	0.176
578.34	0.179
578.79	0.177
579.24	0.176
579.69	0.178
580.14	0.181
580.59	0.182
581.04	0.183
581.49	0.185
581.95	0.186
582.40	0.188
582.85	0.189
583.30	0.189
583.75	0.194
584.20	0.193
584.65	0.195
585.10	0.197
585.55	0.198
586.00	0.199
586.45	0.200
586.90	0.205
587.35	0.203
587.80	0.205
588.25	0.206
588.71	0.209
589.16	0.211
589.61	0.208
590.06	0.214
590.51	0.215
590.96	0.216
591.41	0.220
591.86	0.220
592.31	0.221
592.76	0.225
593.21	0.224
593.66	0.229
594.11	0.229
594.56	0.232
595.01	0.234
595.46	0.235
595.91	0.238
596.36	0.238
596.81	0.242
597.26	0.243
597.71	0.244
598.16	0.246
598.61	0.250
599.06	0.251
599.51	0.251
599.96	0.256
600.41	0.256
600.86	0.257
601.31	0.258
601.76	0.262
602.21	0.265
602.65	0.268
603.10	0.269
603.55	0.269
604.00	0.274
604.45	0.272
604.90	0.276
605.35	0.279
605.80	0.279
606.25	0.281
606.70	0.283
607.15	0.285
607.60	0.285
608.05	0.287
608.50	0.290
608.95	0.291
609.39	0.292
609.84	0.295
610.29	0.295
610.74	0.295
611.19	0.296
611.64	0.297
612.09	0.297
612.54	0.299
612.99	0.300
613.44	0.301
613.88	0.304
614.33	0.303
614.78	0.306
615.23	0.306
615.68	0.305
616.13	0.306
616.58	0.306
617.03	0.308
617.47	0.308
617.92	0.310
618.37	0.312
618.82	0.312
619.27	0.310
619.72	0.313
620.17	0.315
620.61	0.311
621.06	0.314
621.51	0.314
621.96	0.312
622.41	0.315
622.86	0.316
623.30	0.317
623.75	0.318
624.20	0.319
624.65	0.318
625.10	0.319
625.54	0.317
625.99	0.321
626.44	0.322
626.89	0.321
627.34	0.324
627.78	0.324
628.23	0.327
628.68	0.328
629.13	0.327
629.58	0.330
630.02	0.332
630.47	0.333
630.92	0.336
631.37	0.333
631.81	0.338
632.26	0.340
632.71	0.339
633.16	0.344
633.61	0.347
634.05	0.346
634.50	0.347
634.95	0.352
635.40	0.352
635.84	0.356
636.29	0.357
636.74	0.361
637.18	0.363
637.63	0.363
638.08	0.367
638.53	0.368
638.97	0.370
639.42	0.374
639.87	0.377
640.32	0.379
640.76	0.383
641.21	0.385
641.66	0.386
642.10	0.394
642.55	0.394
643.00	0.397
643.44	0.400
643.89	0.404
644.34	0.404
644.79	0.410
645.23	0.411
645.68	0.416
646.13	0.419
646.57	0.422
647.02	0.425
647.47	0.427
647.91	0.431
648.36	0.434
648.81	0.436
649.25	0.439
649.70	0.444
650.15	0.448
650.59	0.452
651.04	0.457
651.48	0.456
651.93	0.460
652.38	0.465
652.82	0.466
653.27	0.467
653.72	0.469
654.16	0.473
654.61	0.477
655.06	0.475
655.50	0.475
655.95	0.478
656.39	0.480
656.84	0.489
657.29	0.493
657.73	0.490
658.18	0.492
658.62	0.494
659.07	0.498
659.52	0.500
659.96	0.502
660.41	0.505
660.85	0.505
661.30	0.506
661.74	0.506
662.19	0.508
662.64	0.507
663.08	0.509
663.53	0.507
663.97	0.509
664.42	0.508
664.86	0.507
665.31	0.512
665.75	0.508
666.20	0.508
666.65	0.510
667.09	0.508
667.54	0.503
667.98	0.503
668.43	0.502
668.87	0.501
669.32	0.496
669.76	0.495
670.21	0.492
670.65	0.489
671.10	0.483
671.54	0.479
671.99	0.476
672.43	0.468
672.88	0.463
673.32	0.462
673.77	0.453
674.21	0.448
674.66	0.440
675.10	0.436
675.55	0.428
675.99	0.419
676.44	0.413
676.88	0.408
677.33	0.399
677.77	0.391
678.22	0.386
678.66	0.377
679.11	0.368
679.55	0.362
679.99	0.351
680.44	0.345
680.88	0.334
681.33	0.326
681.77	0.319
682.22	0.307
682.66	0.302
683.11	0.294
683.55	0.289
683.99	0.281
684.44	0.275
684.88	0.268
685.33	0.259
685.77	0.248
686.21	0.246
686.66	0.240
687.10	0.232
687.55	0.224
687.99	0.218
688.44	0.215
688.88	0.206
689.32	0.203
689.77	0.198
690.21	0.193
690.65	0.187
691.10	0.179
691.54	0.180
691.99	0.173
692.43	0.169
692.87	0.166
693.32	0.161
693.76	0.159
694.20	0.156
694.65	0.150
695.09	0.147
695.53	0.142
695.98	0.142
696.42	0.140
696.86	0.139
697.31	0.136
697.75	0.131
698.19	0.132
698.64	0.128
699.08	0.127
699.52	0.124
699.97	0.121
700.41	0.120
700.85	0.118
701.30	0.115
701.74	0.115
702.18	0.113
702.63	0.112
703.07	0.109
703.51	0.109
703.96	0.110
704.40	0.108
704.84	0.106
705.28	0.106
705.73	0.106
706.17	0.103
706.61	0.104
707.06	0.102
707.50	0.102
707.94	0.102
708.38	0.099
708.83	0.100
709.27	0.100
709.71	0.099
710.15	0.096
710.60	0.099
711.04	0.095
711.48	0.100
711.92	0.095
712.37	0.095
712.81	0.096
713.25	0.095
713.69	0.093
714.13	0.093
714.58	0.093
715.02	0.092
715.46	0.093
715.90	0.093
716.35	0.093
716.79	0.093
717.23	0.094
717.67	0.091
718.11	0.092
718.56	0.092
719.00	0.091
719.44	0.091
719.88	0.092
720.32	0.091
720.76	0.089
721.21	0.092
721.65	0.092
722.09	0.091
722.53	0.092
722.97	0.089
723.41	0.091
723.86	0.091
724.30	0.089
724.74	0.091
725.18	0.088
725.62	0.089
726.06	0.091
726.50	0.090
726.95	0.092
727.39	0.093
727.83	0.091
728.27	0.091
728.71	0.092
729.15	0.090
729.59	0.089
730.03	0.090
730.48	0.090
730.92	0.093
731.36	0.090
731.80	0.091
732.24	0.093
732.68	0.093
733.12	0.095
733.56	0.092
734.00	0.092
734.44	0.093
734.89	0.092
735.33	0.090
735.77	0.094
736.21	0.093
736.65	0.090
737.09	0.094
737.53	0.094
737.97	0.092
738.41	0.091
738.85	0.092
739.29	0.093
739.73	0.094
740.17	0.091
740.61	0.091
741.05	0.096
741.49	0.093
741.93	0.092
742.37	0.093
742.81	0.093
743.26	0.093
743.70	0.092
744.14	0.093
744.58	0.093
745.02	0.093
745.46	0.092
745.90	0.090
746.34	0.091
746.78	0.097
747.22	0.092
747.66	0.090
748.10	0.094
748.54	0.091
748.98	0.092
749.42	0.094
749.86	0.093
750.29	0.095
750.73	0.094
751.17	0.093
751.61	0.094
752.05	0.091
752.49	0.093
752.93	0.091
753.37	0.093
753.81	0.091
754.25	0.091
754.69	0.093
755.13	0.096
755.57	0.091
756.01	0.090
756.45	0.091
756.89	0.090
757.33	0.091
757.77	0.091
758.21	0.092
758.64	0.088
759.08	0.090
759.52	0.090
759.96	0.091
760.40	0.091
760.84	0.092
761.28	0.090
761.72	0.091
762.16	0.088
762.60	0.089
763.03	0.090
763.47	0.091
763.91	0.092
764.35	0.089
764.79	0.090
765.23	0.090
765.67	0.087
766.11	0.091
766.54	0.091
766.98	0.085
767.42	0.090
767.86	0.093
768.30	0.088
768.74	0.089
769.17	0.091
769.61	0.089
770.05	0.090
770.49	0.091
770.93	0.089
771.37	0.091
771.80	0.089
772.24	0.088
772.68	0.088
773.12	0.089
773.56	0.090
774.00	0.091
774.43	0.087
774.87	0.086
775.31	0.088
775.75	0.086
776.19	0.089
776.62	0.089
777.06	0.089
777.50	0.089
777.94	0.086
778.37	0.091
778.81	0.088
779.25	0.088
779.69	0.087
780.13	0.088
780.56	0.087
781.00	0.086
781.44	0.088
781.88	0.090
782.31	0.085
782.75	0.087
783.19	0.091
783.63	0.090
784.06	0.087
784.50	0.088
784.94	0.091
785.37	0.086
785.81	0.087
786.25	0.086
786.69	0.090
787.12	0.091
787.56	0.087
788.00	0.089
788.43	0.088
788.87	0.088
789.31	0.089
789.75	0.088
790.18	0.087
790.62	0.088
791.06	0.088
791.49	0.091
791.93	0.086
792.37	0.088
792.80	0.092
793.24	0.088
793.68	0.088
794.11	0.091
794.55	0.091
794.99	0.087
795.42	0.093
795.86	0.091
796.30	0.090
796.73	0.086
797.17	0.087
797.61	0.090
798.04	0.087
798.48	0.088
798.91	0.089
799.35	0.089
799.79	0.084
800.22	0.090
800.66	0.088
801.10	0.091
801.53	0.095
801.97	0.089
802.40	0.087
802.84	0.087
803.28	0.088
803.71	0.088
804.15	0.091
804.58	0.089
805.02	0.090
805.46	0.086
805.89	0.089
806.33	0.094
806.76	0.085
807.20	0.090
807.63	0.087
808.07	0.088
808.51	0.091
808.94	0.088
809.38	0.086
809.81	0.091
810.25	0.087
810.68	0.087
811.12	0.086
811.55	0.088
811.99	0.091
812.42	0.088
812.86	0.089
813.29	0.091
813.73	0.088
814.17	0.080
814.60	0.088
815.04	0.081
815.47	0.084
815.91	0.084
816.34	0.085
816.78	0.087
817.21	0.091
817.65	0.086
818.08	0.090
818.52	0.086
818.95	0.089
819.39	0.092
819.82	0.089
820.25	0.087
820.69	0.091
821.12	0.090
821.56	0.086
821.99	0.091
822.43	0.087
822.86	0.091
823.30	0.089
823.73	0.088
824.17	0.093
824.60	0.088
825.04	0.090
825.47	0.092
825.90	0.085
826.34	0.088
826.77	0.091
827.21	0.090
827.64	0.091
828.08	0.095
828.51	0.090
828.94	0.093
829.38	0.093
829.81	0.092
830.25	0.097
830.68	0.089
831.11	0.090
831.55	0.095
831.98	0.096
832.42	0.092
832.85	0.096
833.28	0.095
833.72	0.095
834.15	0.096
834.58	0.091
835.02	0.095
835.45	0.094
835.88	0.093
836.32	0.100
836.75	0.092
837.19	0.095
837.62	0.092
838.05	0.096
838.49	0.093
838.92	0.095
839.35	0.095
839.79	0.097
840.22	0.095
840.65	0.092
841.09	0.097
841.52	0.097
841.95	0.092
842.39	0.097
842.82	0.099
843.25	0.098
843.68	0.098
844.12	0.099
844.55	0.098
844.98	0.097
845.42	0.094
845.85	0.096
846.28	0.094
846.71	0.094
847.15	0.092
847.58	0.095
848.01	0.093
848.45	0.093
848.88	0.095
849.31	0.094
849.74	0.093
850.18	0.091
850.61	0.102
851.04	0.095
851.47	0.091
851.91	0.098
852.34	0.094
852.77	0.096
853.20	0.100
853.64	0.099
854.07	0.101
854.50	0.100
854.93	0.090
855.36	0.097
855.80	0.095
856.23	0.097
856.66	0.097
857.09	0.098
857.52	0.099
857.96	0.101
858.39	0.097
858.82	0.097
859.25	0.099
859.68	0.096
860.12	0.100
860.55	0.096
860.98	0.100
861.41	0.103
861.84	0.104
862.27	0.103
862.71	0.107
863.14	0.100
863.57	0.102
864.00	0.103
864.43	0.096
864.86	0.106
865.30	0.100
865.73	0.102
866.16	0.109
866.59	0.107
867.02	0.098
867.45	0.100
867.88	0.101
868.31	0.100
868.75	0.103
869.18	0.100
869.61	0.109
870.04	0.106
870.47	0.099
870.90	0.109
871.33	0.107
871.76	0.100
872.19	0.097
872.62	0.104
873.06	0.100
873.49	0.101
873.92	0.101
874.35	0.105
874.78	0.107
875.21	0.096
875.64	0.111
876.07	0.110
876.50	0.101
876.93	0.105
877.36	0.108
877.79	0.103
878.22	0.103
878.65	0.104
879.08	0.117
879.51	0.103
879.94	0.104
880.37	0.106
880.80	0.104
881.23	0.106
881.67	0.107
882.10	0.110
882.53	0.102
882.96	0.111
883.39	0.109
883.82	0.105
884.25	0.109
884.68	0.104
885.11	0.109
885.54	0.109
885.97	0.102
886.39	0.107
886.82	0.103
887.25	0.106
887.68	0.111
888.11	0.106
888.54	0.106
888.97	0.105
889.40	0.109
889.83	0.107
890.26	0.109
890.69	0.103
891.12	0.106
891.55	0.108
891.98	0.108
892.41	0.107
892.84	0.111
893.27	0.108
893.70	0.106
894.13	0.104
894.56	0.108
894.98	0.108
895.41	0.107
895.84	0.115
896.27	0.107
896.70	0.106
897.13	0.110
897.56	0.107
897.99	0.104
898.42	0.109
898.85	0.110
899.27	0.107
899.70	0.113
900.13	0.111
900.56	0.114
900.99	0.113
901.42	0.102
901.85	0.112
902.28	0.117
902.70	0.109
903.13	0.111
903.56	0.114
903.99	0.108
904.42	0.112
904.85	0.111
905.27	0.117
905.70	0.115
906.13	0.109
906.56	0.114
906.99	0.112
907.42	0.109
907.84	0.114
908.27	0.114
908.70	0.108
909.13	0.112
909.56	0.109
909.98	0.110
910.41	0.110
910.84	0.114
911.27	0.109
911.70	0.110
912.12	0.108
912.55	0.110
912.98	0.108
913.41	0.109
913.84	0.110
914.26	0.110
914.69	0.108
915.12	0.113
915.55	0.103
915.97	0.112
916.40	0.110
916.83	0.109
917.26	0.112
917.68	0.114
918.11	0.111
918.54	0.115
918.97	0.113
919.39	0.115
919.82	0.114
920.25	0.108
920.67	0.113
921.10	0.113
921.53	0.113
921.96	0.115
922.38	0.113
922.81	0.116
923.24	0.118
923.66	0.117
924.09	0.114
924.52	0.120
924.94	0.114
925.37	0.119
925.80	0.118
926.22	0.120
926.65	0.122
927.08	0.118
927.50	0.119
927.93	0.124
928.36	0.121
928.78	0.124
929.21	0.126
929.64	0.128
930.06	0.127
930.49	0.129
930.92	0.125
931.34	0.125
931.77	0.127
932.20	0.128
932.62	0.128
933.05	0.126
933.47	0.132
933.90	0.134
934.33	0.138
934.75	0.132
935.18	0.135
935.61	0.132
936.03	0.136
936.46	0.139
936.88	0.140
937.31	0.152
937.73	0.145
938.16	0.144
938.59	0.150
939.01	0.155
939.44	0.152
939.86	0.153
940.29	0.149
940.71	0.162
941.14	0.160
941.57	0.156
941.99	0.164
942.42	0.167
942.84	0.159
943.27	0.169
943.69	0.165
944.12	0.169
944.54	0.180
944.97	0.180
945.39	0.177
945.82	0.181
946.24	0.168
946.67	0.189
947.09	0.188
947.52	0.182
947.94	0.190
948.37	0.188
948.79	0.188
949.22	0.199
949.64	0.197
950.07	0.193
950.49	0.203
950.92	0.203
951.34	0.207
951.77	0.214
952.19	0.209
952.62	0.214
953.04	0.218
953.47	0.218
953.89	0.228
954.32	0.221
954.74	0.230
955.17	0.232
955.59	0.231
956.01	0.240
956.44	0.244
956.86	0.235
957.29	0.249
957.71	0.258
958.14	0.250
958.56	0.256
958.98	0.257
959.41	0.254
959.83	0.258
960.26	0.258
960.68	0.261
961.10	0.264
961.53	0.265
961.95	0.263
962.38	0.268
962.80	0.264
963.22	0.268
963.65	0.267
964.07	0.266
964.50	0.272
964.92	0.272
965.34	0.269
965.77	0.274
966.19	0.265
966.61	0.273
967.04	0.276
967.46	0.271
967.88	0.270
968.31	0.278
968.73	0.275
969.15	0.272
969.58	0.274
970.00	0.269
970.42	0.279
970.85	0.268
971.27	0.275
971.69	0.281
972.12	0.270
972.54	0.282
972.96	0.275
973.39	0.281
973.81	0.285
974.23	0.282
974.65	0.285
975.08	0.290
975.50	0.279
975.92	0.275
976.35	0.281
976.77	0.281
977.19	0.280
977.61	0.274
978.04	0.279
978.46	0.276
978.88	0.277
979.30	0.279
979.73	0.282
980.15	0.278
980.57	0.274
980.99	0.282
981.42	0.275
981.84	0.277
982.26	0.282
982.68	0.278
983.11	0.280
983.53	0.281
983.95	0.278
984.37	0.279
984.79	0.273
985.22	0.272
985.64	0.283
986.06	0.270
986.48	0.276
986.90	0.275
987.33	0.273
987.75	0.276
988.17	0.279
988.59	0.271
989.01	0.273
989.43	0.276
989.86	0.270
990.28	0.272
990.70	0.268
991.12	0.268
991.54	0.275
991.96	0.267
992.39	0.263
992.81	0.270
993.23	0.266
993.65	0.262
994.07	0.255
994.49	0.264
994.91	0.261
995.34	0.259
995.76	0.264
996.18	0.264
996.60	0.250
997.02	0.255
997.44	0.266
997.86	0.253
998.28	0.249
998.70	0.257
999.12	0.250
999.55	0.259
999.97	0.253
1000.39	0.257
1000.81	0.255
1001.23	0.243
1001.65	0.249
1002.07	0.252
1002.49	0.240
1002.91	0.253
1003.33	0.249
1003.75	0.248
1004.17	0.252
1004.59	0.251
1005.01	0.243
1005.43	0.248
1005.85	0.246
1006.28	0.234
1006.70	0.249
1007.12	0.242
1007.54	0.238
1007.96	0.245
1008.38	0.234
1008.80	0.238
1009.22	0.244
1009.64	0.235
1010.06	0.239
1010.48	0.230
1010.90	0.234
1011.32	0.243
1011.74	0.228
1012.16	0.230
1012.58	0.245
1013.00	0.225
1013.42	0.224
1013.84	0.228
1014.26	0.221
1014.67	0.228
1015.09	0.220
1015.51	0.226
1015.93	0.234
1016.35	0.209
1016.77	0.221
1017.19	0.224
1017.61	0.210
1018.03	0.220
1018.45	0.219
1018.87	0.219
1019.29	0.208
1019.71	0.203
1020.13	0.208
1020.55	0.226
1020.97	0.201
1021.38	0.207
1021.80	0.217
1022.22	0.215
1022.64	0.206
1023.06	0.223
1023.48	0.204
1023.90	0.209
1024.32	0.195
1024.74	0.193
1025.15	0.216
1025.57	0.207
1025.99	0.201
1026.41	0.209
1026.83	0.207
1027.25	0.208
1027.67	0.218
1028.08	0.188
1028.50	0.205
1028.92	0.197
1029.34	0.185
1029.76	0.204
1030.18	0.191
1030.60	0.198
1031.01	0.196
1031.43	0.177
1031.85	0.187
1032.27	0.200
1032.69	0.179
1033.10	0.187
1033.52	0.196
1033.94	0.192
1034.36	0.193
1034.78	0.183
1035.19	0.173
1035.61	0.197
1036.03	0.181
1036.45	0.188
1036.87	0.201
1037.28	0.163
1037.70	0.176
1038.12	0.201
1038.54	0.179
1038.95	0.182
1039.37	0.182
1039.79	0.173
1040.21	0.192
1040.62	0.151
1041.04	0.184
1041.46	0.211
1041.88	0.187
1042.29	0.155
1042.71	0.189
1043.13	0.151
1043.55	0.188
1043.96	0.177
1044.38	0.178
1044.80	0.204
1045.21	0.162
1045.63	0.182
1046.05	0.186
1046.47	0.187
1046.88	0.180
1047.30	0.193
1047.72	0.170
1048.13	0.155
1048.55	0.188
1048.97	0.177
1049.38	0.186
1049.80	0.146
1050.22	0.159
1050.63	0.167
1051.05	0.160
1051.47	0.179
1051.88	0.174
1052.30	0.167
1052.72	0.151
1053.13	0.189
1053.55	0.135
1053.97	0.171
1054.38	0.166
1054.80	0.149
1055.21	0.204
1055.63	0.159
1056.05	0.169
1056.46	0.206
1056.88	0.182
1057.29	0.162
1057.71	0.236
1058.13	0.172
1058.54	0.189
1058.96	0.172
1059.37	0.212
1059.79	0.215
1060.21	0.177
1060.62	0.156
1061.04	0.231
1061.45	0.237
1061.87	0.204
1062.28	0.222
1062.70	0.231
1063.12	0.252
1063.53	0.200
1063.95	0.214
1064.36	0.249
1064.78	0.177
1065.19	0.207
1065.61	0.338
1066.02	0.130
1066.44	0.216
1066.85	0.343
1067.27	0.173
1067.68	0.246
1068.10	0.363
1068.51	0.253
1068.93	0.208
1069.35	0.212
1069.76	0.306
1070.17	0.446
1070.59	0.191
1071.00	0.266
1071.42	0.395
1071.83	0.300
1072.25	0.221
1072.66	0.488
1073.08	0.322
1073.49	0.513
1073.91	0.366
1074.32	0.407
1074.74	0.648
1075.15	0.211
1075.57	0.312
1075.98	0.640
1076.40	0.317
1076.81	0.313
1077.22	0.589
1077.64	0.511
1078.05	0.904
1078.47	0.811
1078.88	0.503
1079.30	0.616
1079.71	0.453
1080.12	0.425
1080.54	-0.000
1080.95	0.886
1081.37	0.612
1081.78	-0.000
1082.19	0.632
1082.61	-0.000
1083.02	-0.000
1083.44	1.439
1083.85	-0.000
1084.26	0.631
1084.68	-0.000
1085.09	-0.000
1085.50	0.483
1085.92	0.338
1086.33	-0.000
1086.74	0.513
1087.16	1.020
1087.57	-0.000
1087.98	-0.000
1088.40	-0.000
1088.81	-0.000
1089.22	-0.000
1089.64	-0.000
1090.05	1.643
1090.46	-0.000
1090.88	-0.000
1091.29	-0.000
1091.70	-0.000
1092.12	-0.000
1092.53	-0.000
1092.94	1.218
1093.36	-0.000
1093.77	-0.000
1094.18	-0.000
1094.59	-0.000
1095.01	1.474
1095.42	-0.000
1095.83	-0.000
1096.25	0.768
1096.66	-0.000
1097.07	-0.000
1097.48	-0.000
1097.90	-0.000
1098.31	-0.000
1098.72	-0.000
1099.13	0.389
>>>>>End Processed Spectral Data<<<<<
