SpectraSuite Data File
++++++++++++++++++++++++++++++++++++
Date: Wed May 04 16:56:25 CEST 2016
User: spectrasuite
Dark Spectrum Present: Yes
Reference Spectrum Present: Yes
Number of Sampled Component Spectra: 1
Spectrometers: HR+C0708
Integration Time (usec): 1000 (HR+C0708)
Spectra Averaged: 10 (HR+C0708)
Boxcar Smoothing: 0 (HR+C0708)
Correct for Electrical Dark: No (HR+C0708)
Strobe/Lamp Enabled: No (HR+C0708)
Correct for Detector Non-linearity: No (HR+C0708)
Correct for Stray Light: No (HR+C0708)
Number of Pixels in Processed Spectrum: 2048
>>>>>Begin Processed Spectral Data<<<<<
188.76	-0.000
189.23	-0.000
189.70	-0.000
190.17	-0.000
190.64	-0.000
191.12	-0.000
191.59	-0.000
192.06	-0.000
192.53	-0.000
193.01	-0.000
193.48	-0.000
193.95	-0.000
194.42	-0.000
194.90	-0.000
195.37	-0.000
195.84	-0.000
196.31	-0.000
196.78	-0.000
197.26	-0.000
197.73	-0.000
198.20	-0.000
198.67	-0.000
199.14	-0.000
199.62	-0.000
200.09	-0.000
200.56	-0.000
201.03	-0.000
201.50	-0.000
201.97	1.537
202.45	-0.000
202.92	-0.000
203.39	-0.000
203.86	-0.000
204.33	-0.000
204.80	-0.000
205.28	-0.000
205.75	-0.000
206.22	-0.000
206.69	-0.000
207.16	1.038
207.63	-0.000
208.11	-0.000
208.58	-0.000
209.05	-0.000
209.52	-0.000
209.99	-0.000
210.46	0.903
210.93	-0.000
211.41	-0.000
211.88	-0.000
212.35	-0.000
212.82	-0.000
213.29	-0.000
213.76	-0.000
214.23	-0.000
214.70	-0.000
215.18	-0.000
215.65	1.451
216.12	-0.000
216.59	-0.000
217.06	0.681
217.53	-0.000
218.00	-0.000
218.47	-0.000
218.94	-0.000
219.41	-0.000
219.89	-0.000
220.36	1.124
220.83	1.099
221.30	-0.000
221.77	-0.000
222.24	1.615
222.71	-0.000
223.18	-0.000
223.65	1.108
224.12	1.916
224.59	-0.000
225.06	-0.000
225.54	1.113
226.01	-0.000
226.48	-0.000
226.95	-0.000
227.42	1.481
227.89	-0.000
228.36	-0.000
228.83	1.972
229.30	-0.000
229.77	-0.000
230.24	-0.000
230.71	1.997
231.18	3.096
231.65	-0.000
232.12	-0.000
232.59	-0.000
233.06	-0.000
233.53	-0.000
234.00	1.946
234.47	-0.000
234.94	-0.000
235.41	3.058
235.88	2.338
236.35	-0.000
236.82	-0.000
237.29	-0.000
237.76	3.516
238.23	-0.000
238.70	-0.000
239.17	2.645
239.64	-0.000
240.11	-0.000
240.58	2.533
241.05	4.137
241.52	-0.000
241.99	3.058
242.46	2.534
242.93	-0.000
243.40	-0.000
243.87	3.194
244.34	2.428
244.81	2.884
245.28	-0.000
245.75	2.609
246.22	4.350
246.69	-0.000
247.16	3.195
247.63	3.596
248.10	3.901
248.57	-0.000
249.04	2.864
249.51	2.967
249.98	-0.000
250.45	3.928
250.92	2.541
251.39	2.769
251.85	2.769
252.32	2.296
252.79	2.160
253.26	2.011
253.73	1.869
254.20	1.708
254.67	1.621
255.14	1.564
255.61	1.467
256.08	1.378
256.55	1.328
257.02	1.299
257.49	1.220
257.95	1.193
258.42	1.152
258.89	1.110
259.36	1.079
259.83	1.049
260.30	1.033
260.77	0.998
261.24	0.973
261.71	0.956
262.17	0.929
262.64	0.911
263.11	0.894
263.58	0.881
264.05	0.858
264.52	0.842
264.99	0.829
265.46	0.818
265.92	0.804
266.39	0.796
266.86	0.785
267.33	0.768
267.80	0.758
268.27	0.747
268.74	0.744
269.20	0.726
269.67	0.721
270.14	0.712
270.61	0.705
271.08	0.692
271.55	0.687
272.01	0.679
272.48	0.666
272.95	0.664
273.42	0.658
273.89	0.654
274.36	0.643
274.82	0.642
275.29	0.636
275.76	0.629
276.23	0.622
276.70	0.617
277.16	0.616
277.63	0.611
278.10	0.604
278.57	0.602
279.04	0.603
279.50	0.596
279.97	0.595
280.44	0.594
280.91	0.584
281.38	0.582
281.84	0.578
282.31	0.578
282.78	0.574
283.25	0.578
283.72	0.577
284.18	0.571
284.65	0.572
285.12	0.571
285.59	0.568
286.05	0.566
286.52	0.567
286.99	0.569
287.46	0.566
287.92	0.562
288.39	0.563
288.86	0.566
289.33	0.563
289.79	0.559
290.26	0.560
290.73	0.555
291.20	0.549
291.66	0.551
292.13	0.550
292.60	0.542
293.07	0.541
293.53	0.536
294.00	0.531
294.47	0.524
294.93	0.521
295.40	0.514
295.87	0.511
296.34	0.500
296.80	0.497
297.27	0.485
297.74	0.481
298.20	0.474
298.67	0.465
299.14	0.458
299.60	0.453
300.07	0.445
300.54	0.439
301.01	0.435
301.47	0.424
301.94	0.417
302.41	0.408
302.87	0.402
303.34	0.399
303.81	0.393
304.27	0.388
304.74	0.379
305.21	0.368
305.67	0.367
306.14	0.359
306.61	0.356
307.07	0.347
307.54	0.346
308.01	0.339
308.47	0.334
308.94	0.329
309.40	0.326
309.87	0.324
310.34	0.322
310.80	0.317
311.27	0.313
311.74	0.309
312.20	0.308
312.67	0.303
313.13	0.303
313.60	0.299
314.07	0.297
314.53	0.290
315.00	0.287
315.47	0.289
315.93	0.289
316.40	0.283
316.86	0.285
317.33	0.282
317.80	0.280
318.26	0.278
318.73	0.279
319.19	0.279
319.66	0.273
320.13	0.271
320.59	0.272
321.06	0.272
321.52	0.267
321.99	0.269
322.45	0.266
322.92	0.263
323.39	0.264
323.85	0.261
324.32	0.259
324.78	0.258
325.25	0.254
325.71	0.258
326.18	0.253
326.64	0.253
327.11	0.249
327.58	0.249
328.04	0.249
328.51	0.244
328.97	0.248
329.44	0.243
329.90	0.240
330.37	0.238
330.83	0.240
331.30	0.236
331.76	0.235
332.23	0.232
332.69	0.232
333.16	0.232
333.62	0.229
334.09	0.227
334.56	0.224
335.02	0.219
335.49	0.220
335.95	0.216
336.42	0.216
336.88	0.213
337.35	0.212
337.81	0.208
338.28	0.213
338.74	0.207
339.20	0.210
339.67	0.210
340.13	0.212
340.60	0.208
341.06	0.203
341.53	0.202
341.99	0.201
342.46	0.199
342.92	0.196
343.39	0.195
343.85	0.192
344.32	0.193
344.78	0.193
345.25	0.196
345.71	0.196
346.17	0.197
346.64	0.196
347.10	0.193
347.57	0.190
348.03	0.186
348.50	0.187
348.96	0.189
349.43	0.186
349.89	0.190
350.35	0.184
350.82	0.186
351.28	0.190
351.75	0.183
352.21	0.190
352.67	0.180
353.14	0.184
353.60	0.182
354.07	0.180
354.53	0.175
355.00	0.177
355.46	0.174
355.92	0.169
356.39	0.175
356.85	0.172
357.31	0.169
357.78	0.166
358.24	0.169
358.71	0.167
359.17	0.168
359.63	0.166
360.10	0.167
360.56	0.164
361.03	0.164
361.49	0.165
361.95	0.164
362.42	0.165
362.88	0.165
363.34	0.165
363.81	0.162
364.27	0.164
364.73	0.165
365.20	0.164
365.66	0.162
366.12	0.162
366.59	0.161
367.05	0.161
367.51	0.161
367.98	0.161
368.44	0.159
368.90	0.159
369.37	0.157
369.83	0.159
370.29	0.157
370.76	0.158
371.22	0.155
371.68	0.157
372.15	0.155
372.61	0.152
373.07	0.155
373.54	0.154
374.00	0.155
374.46	0.154
374.92	0.153
375.39	0.154
375.85	0.153
376.31	0.153
376.78	0.152
377.24	0.150
377.70	0.151
378.16	0.151
378.63	0.152
379.09	0.153
379.55	0.151
380.01	0.152
380.48	0.154
380.94	0.150
381.40	0.151
381.87	0.151
382.33	0.149
382.79	0.149
383.25	0.150
383.72	0.153
384.18	0.149
384.64	0.151
385.10	0.150
385.56	0.149
386.03	0.148
386.49	0.149
386.95	0.148
387.41	0.147
387.88	0.144
388.34	0.145
388.80	0.150
389.26	0.146
389.72	0.148
390.19	0.143
390.65	0.146
391.11	0.144
391.57	0.147
392.04	0.145
392.50	0.144
392.96	0.145
393.42	0.144
393.88	0.146
394.34	0.144
394.81	0.144
395.27	0.144
395.73	0.139
396.19	0.143
396.65	0.143
397.12	0.141
397.58	0.142
398.04	0.139
398.50	0.142
398.96	0.141
399.42	0.142
399.89	0.145
400.35	0.143
400.81	0.140
401.27	0.142
401.73	0.141
402.19	0.139
402.65	0.136
403.12	0.137
403.58	0.140
404.04	0.134
404.50	0.133
404.96	0.137
405.42	0.137
405.88	0.138
406.34	0.139
406.81	0.138
407.27	0.133
407.73	0.134
408.19	0.134
408.65	0.131
409.11	0.132
409.57	0.131
410.03	0.135
410.49	0.133
410.96	0.132
411.42	0.136
411.88	0.131
412.34	0.126
412.80	0.133
413.26	0.133
413.72	0.129
414.18	0.131
414.64	0.133
415.10	0.132
415.56	0.132
416.02	0.130
416.48	0.130
416.95	0.131
417.41	0.131
417.87	0.127
418.33	0.132
418.79	0.128
419.25	0.129
419.71	0.131
420.17	0.127
420.63	0.125
421.09	0.124
421.55	0.125
422.01	0.127
422.47	0.132
422.93	0.132
423.39	0.130
423.85	0.126
424.31	0.127
424.77	0.129
425.23	0.128
425.69	0.129
426.15	0.130
426.61	0.130
427.07	0.122
427.53	0.125
427.99	0.127
428.45	0.129
428.91	0.124
429.37	0.122
429.83	0.123
430.29	0.127
430.75	0.129
431.21	0.130
431.67	0.134
432.13	0.130
432.59	0.123
433.05	0.125
433.51	0.121
433.97	0.120
434.43	0.132
434.89	0.133
435.35	0.124
435.81	0.126
436.27	0.128
436.73	0.124
437.19	0.129
437.65	0.126
438.11	0.127
438.57	0.126
439.03	0.125
439.48	0.128
439.94	0.125
440.40	0.124
440.86	0.125
441.32	0.123
441.78	0.122
442.24	0.125
442.70	0.124
443.16	0.126
443.62	0.126
444.08	0.121
444.54	0.123
444.99	0.123
445.45	0.119
445.91	0.122
446.37	0.120
446.83	0.122
447.29	0.123
447.75	0.121
448.21	0.127
448.67	0.123
449.12	0.123
449.58	0.123
450.04	0.126
450.50	0.120
450.96	0.120
451.42	0.122
451.88	0.121
452.34	0.120
452.79	0.122
453.25	0.122
453.71	0.122
454.17	0.121
454.63	0.123
455.09	0.123
455.55	0.121
456.00	0.118
456.46	0.121
456.92	0.122
457.38	0.120
457.84	0.121
458.30	0.119
458.75	0.119
459.21	0.121
459.67	0.117
460.13	0.117
460.59	0.119
461.04	0.119
461.50	0.117
461.96	0.118
462.42	0.118
462.88	0.117
463.33	0.116
463.79	0.119
464.25	0.116
464.71	0.121
465.17	0.118
465.62	0.118
466.08	0.120
466.54	0.121
467.00	0.119
467.46	0.119
467.91	0.121
468.37	0.120
468.83	0.119
469.29	0.118
469.74	0.120
470.20	0.120
470.66	0.119
471.12	0.120
471.57	0.119
472.03	0.119
472.49	0.121
472.95	0.121
473.40	0.119
473.86	0.120
474.32	0.119
474.78	0.119
475.23	0.121
475.69	0.120
476.15	0.123
476.60	0.121
477.06	0.121
477.52	0.119
477.98	0.120
478.43	0.120
478.89	0.118
479.35	0.121
479.80	0.119
480.26	0.117
480.72	0.119
481.18	0.117
481.63	0.119
482.09	0.119
482.55	0.117
483.00	0.116
483.46	0.118
483.92	0.117
484.37	0.117
484.83	0.116
485.29	0.119
485.74	0.116
486.20	0.116
486.66	0.119
487.11	0.118
487.57	0.118
488.03	0.117
488.48	0.120
488.94	0.119
489.40	0.116
489.85	0.118
490.31	0.117
490.77	0.116
491.22	0.118
491.68	0.117
492.13	0.117
492.59	0.120
493.05	0.117
493.50	0.116
493.96	0.118
494.42	0.118
494.87	0.118
495.33	0.115
495.78	0.117
496.24	0.117
496.70	0.119
497.15	0.118
497.61	0.119
498.06	0.116
498.52	0.117
498.98	0.116
499.43	0.116
499.89	0.117
500.34	0.117
500.80	0.116
501.25	0.115
501.71	0.115
502.17	0.114
502.62	0.115
503.08	0.112
503.53	0.114
503.99	0.114
504.44	0.114
504.90	0.113
505.36	0.114
505.81	0.115
506.27	0.115
506.72	0.113
507.18	0.115
507.63	0.114
508.09	0.115
508.54	0.112
509.00	0.116
509.45	0.115
509.91	0.114
510.36	0.117
510.82	0.117
511.27	0.114
511.73	0.114
512.19	0.115
512.64	0.112
513.10	0.115
513.55	0.114
514.01	0.114
514.46	0.116
514.92	0.114
515.37	0.116
515.83	0.113
516.28	0.115
516.73	0.112
517.19	0.112
517.64	0.112
518.10	0.115
518.55	0.114
519.01	0.114
519.46	0.111
519.92	0.113
520.37	0.112
520.83	0.111
521.28	0.112
521.74	0.114
522.19	0.111
522.65	0.110
523.10	0.112
523.55	0.113
524.01	0.111
524.46	0.113
524.92	0.111
525.37	0.114
525.83	0.111
526.28	0.112
526.73	0.114
527.19	0.113
527.64	0.112
528.10	0.115
528.55	0.113
529.01	0.112
529.46	0.115
529.91	0.112
530.37	0.113
530.82	0.112
531.28	0.113
531.73	0.112
532.18	0.114
532.64	0.116
533.09	0.113
533.54	0.115
534.00	0.113
534.45	0.115
534.91	0.112
535.36	0.112
535.81	0.111
536.27	0.114
536.72	0.112
537.17	0.113
537.63	0.113
538.08	0.114
538.54	0.113
538.99	0.116
539.44	0.115
539.90	0.117
540.35	0.114
540.80	0.114
541.26	0.116
541.71	0.115
542.16	0.117
542.62	0.119
543.07	0.117
543.52	0.116
543.98	0.116
544.43	0.119
544.88	0.116
545.34	0.118
545.79	0.118
546.24	0.116
546.69	0.119
547.15	0.118
547.60	0.119
548.05	0.117
548.51	0.119
548.96	0.121
549.41	0.121
549.86	0.120
550.32	0.122
550.77	0.121
551.22	0.120
551.68	0.121
552.13	0.123
552.58	0.121
553.03	0.121
553.49	0.121
553.94	0.123
554.39	0.122
554.84	0.124
555.30	0.123
555.75	0.122
556.20	0.125
556.65	0.125
557.11	0.127
557.56	0.126
558.01	0.126
558.46	0.125
558.92	0.128
559.37	0.128
559.82	0.128
560.27	0.128
560.72	0.129
561.18	0.130
561.63	0.130
562.08	0.129
562.53	0.129
562.99	0.130
563.44	0.131
563.89	0.133
564.34	0.133
564.79	0.134
565.25	0.134
565.70	0.134
566.15	0.134
566.60	0.136
567.05	0.136
567.50	0.137
567.96	0.137
568.41	0.138
568.86	0.139
569.31	0.138
569.76	0.138
570.21	0.141
570.67	0.138
571.12	0.139
571.57	0.140
572.02	0.143
572.47	0.144
572.92	0.142
573.37	0.146
573.83	0.146
574.28	0.144
574.73	0.144
575.18	0.146
575.63	0.147
576.08	0.147
576.53	0.147
576.98	0.151
577.44	0.151
577.89	0.150
578.34	0.153
578.79	0.152
579.24	0.151
579.69	0.153
580.14	0.156
580.59	0.158
581.04	0.157
581.49	0.158
581.95	0.160
582.40	0.159
582.85	0.163
583.30	0.163
583.75	0.165
584.20	0.165
584.65	0.165
585.10	0.167
585.55	0.167
586.00	0.167
586.45	0.171
586.90	0.173
587.35	0.172
587.80	0.174
588.25	0.175
588.71	0.176
589.16	0.179
589.61	0.178
590.06	0.181
590.51	0.182
590.96	0.184
591.41	0.187
591.86	0.188
592.31	0.189
592.76	0.191
593.21	0.190
593.66	0.195
594.11	0.196
594.56	0.195
595.01	0.198
595.46	0.199
595.91	0.202
596.36	0.203
596.81	0.206
597.26	0.207
597.71	0.207
598.16	0.209
598.61	0.210
599.06	0.212
599.51	0.212
599.96	0.214
600.41	0.216
600.86	0.220
601.31	0.220
601.76	0.225
602.21	0.225
602.65	0.226
603.10	0.228
603.55	0.228
604.00	0.231
604.45	0.230
604.90	0.231
605.35	0.235
605.80	0.234
606.25	0.236
606.70	0.239
607.15	0.240
607.60	0.240
608.05	0.243
608.50	0.244
608.95	0.245
609.39	0.247
609.84	0.246
610.29	0.248
610.74	0.248
611.19	0.249
611.64	0.251
612.09	0.252
612.54	0.252
612.99	0.253
613.44	0.254
613.88	0.253
614.33	0.254
614.78	0.256
615.23	0.256
615.68	0.258
616.13	0.258
616.58	0.258
617.03	0.260
617.47	0.259
617.92	0.261
618.37	0.263
618.82	0.263
619.27	0.261
619.72	0.262
620.17	0.265
620.61	0.262
621.06	0.263
621.51	0.263
621.96	0.265
622.41	0.266
622.86	0.267
623.30	0.269
623.75	0.268
624.20	0.270
624.65	0.269
625.10	0.271
625.54	0.269
625.99	0.269
626.44	0.272
626.89	0.273
627.34	0.276
627.78	0.275
628.23	0.277
628.68	0.278
629.13	0.277
629.58	0.279
630.02	0.280
630.47	0.280
630.92	0.285
631.37	0.288
631.81	0.287
632.26	0.284
632.71	0.288
633.16	0.291
633.61	0.292
634.05	0.292
634.50	0.294
634.95	0.297
635.40	0.299
635.84	0.302
636.29	0.302
636.74	0.306
637.18	0.307
637.63	0.310
638.08	0.311
638.53	0.313
638.97	0.315
639.42	0.317
639.87	0.318
640.32	0.319
640.76	0.324
641.21	0.327
641.66	0.327
642.10	0.330
642.55	0.334
643.00	0.338
643.44	0.338
643.89	0.343
644.34	0.345
644.79	0.348
645.23	0.348
645.68	0.355
646.13	0.357
646.57	0.357
647.02	0.359
647.47	0.364
647.91	0.366
648.36	0.366
648.81	0.368
649.25	0.372
649.70	0.376
650.15	0.377
650.59	0.381
651.04	0.384
651.48	0.384
651.93	0.389
652.38	0.393
652.82	0.392
653.27	0.390
653.72	0.396
654.16	0.397
654.61	0.398
655.06	0.400
655.50	0.402
655.95	0.400
656.39	0.401
656.84	0.413
657.29	0.418
657.73	0.414
658.18	0.411
658.62	0.412
659.07	0.416
659.52	0.417
659.96	0.418
660.41	0.422
660.85	0.421
661.30	0.420
661.74	0.422
662.19	0.425
662.64	0.426
663.08	0.425
663.53	0.423
663.97	0.423
664.42	0.422
664.86	0.425
665.31	0.426
665.75	0.421
666.20	0.421
666.65	0.423
667.09	0.419
667.54	0.418
667.98	0.418
668.43	0.415
668.87	0.415
669.32	0.412
669.76	0.407
670.21	0.409
670.65	0.404
671.10	0.398
671.54	0.399
671.99	0.395
672.43	0.387
672.88	0.383
673.32	0.380
673.77	0.374
674.21	0.371
674.66	0.363
675.10	0.358
675.55	0.352
675.99	0.347
676.44	0.344
676.88	0.337
677.33	0.331
677.77	0.324
678.22	0.320
678.66	0.312
679.11	0.301
679.55	0.298
679.99	0.291
680.44	0.283
680.88	0.279
681.33	0.272
681.77	0.264
682.22	0.258
682.66	0.253
683.11	0.244
683.55	0.240
683.99	0.234
684.44	0.228
684.88	0.222
685.33	0.215
685.77	0.211
686.21	0.205
686.66	0.200
687.10	0.194
687.55	0.190
687.99	0.184
688.44	0.180
688.88	0.173
689.32	0.171
689.77	0.166
690.21	0.162
690.65	0.158
691.10	0.154
691.54	0.151
691.99	0.148
692.43	0.145
692.87	0.144
693.32	0.135
693.76	0.135
694.20	0.132
694.65	0.129
695.09	0.126
695.53	0.124
695.98	0.121
696.42	0.122
696.86	0.120
697.31	0.118
697.75	0.113
698.19	0.115
698.64	0.111
699.08	0.106
699.52	0.107
699.97	0.106
700.41	0.106
700.85	0.104
701.30	0.101
701.74	0.101
702.18	0.100
702.63	0.097
703.07	0.097
703.51	0.096
703.96	0.096
704.40	0.095
704.84	0.094
705.28	0.093
705.73	0.092
706.17	0.089
706.61	0.090
707.06	0.087
707.50	0.088
707.94	0.090
708.38	0.089
708.83	0.089
709.27	0.088
709.71	0.086
710.15	0.087
710.60	0.088
711.04	0.085
711.48	0.086
711.92	0.084
712.37	0.082
712.81	0.082
713.25	0.084
713.69	0.081
714.13	0.082
714.58	0.084
715.02	0.081
715.46	0.082
715.90	0.083
716.35	0.082
716.79	0.082
717.23	0.084
717.67	0.083
718.11	0.081
718.56	0.083
719.00	0.081
719.44	0.083
719.88	0.082
720.32	0.083
720.76	0.081
721.21	0.084
721.65	0.081
722.09	0.082
722.53	0.082
722.97	0.081
723.41	0.081
723.86	0.080
724.30	0.079
724.74	0.082
725.18	0.082
725.62	0.082
726.06	0.083
726.50	0.083
726.95	0.082
727.39	0.085
727.83	0.084
728.27	0.081
728.71	0.082
729.15	0.082
729.59	0.079
730.03	0.082
730.48	0.082
730.92	0.082
731.36	0.082
731.80	0.082
732.24	0.085
732.68	0.083
733.12	0.082
733.56	0.084
734.00	0.086
734.44	0.083
734.89	0.084
735.33	0.082
735.77	0.085
736.21	0.083
736.65	0.085
737.09	0.085
737.53	0.083
737.97	0.084
738.41	0.084
738.85	0.085
739.29	0.083
739.73	0.085
740.17	0.084
740.61	0.082
741.05	0.086
741.49	0.086
741.93	0.083
742.37	0.083
742.81	0.086
743.26	0.084
743.70	0.086
744.14	0.085
744.58	0.086
745.02	0.084
745.46	0.084
745.90	0.083
746.34	0.084
746.78	0.083
747.22	0.084
747.66	0.083
748.10	0.083
748.54	0.085
748.98	0.085
749.42	0.085
749.86	0.084
750.29	0.084
750.73	0.087
751.17	0.085
751.61	0.085
752.05	0.085
752.49	0.086
752.93	0.084
753.37	0.086
753.81	0.087
754.25	0.084
754.69	0.085
755.13	0.087
755.57	0.083
756.01	0.082
756.45	0.084
756.89	0.085
757.33	0.084
757.77	0.085
758.21	0.084
758.64	0.082
759.08	0.083
759.52	0.084
759.96	0.086
760.40	0.083
760.84	0.081
761.28	0.084
761.72	0.083
762.16	0.083
762.60	0.082
763.03	0.085
763.47	0.082
763.91	0.084
764.35	0.083
764.79	0.085
765.23	0.083
765.67	0.081
766.11	0.083
766.54	0.082
766.98	0.080
767.42	0.081
767.86	0.086
768.30	0.081
768.74	0.083
769.17	0.084
769.61	0.082
770.05	0.082
770.49	0.084
770.93	0.080
771.37	0.085
771.80	0.079
772.24	0.076
772.68	0.082
773.12	0.081
773.56	0.084
774.00	0.083
774.43	0.082
774.87	0.080
775.31	0.082
775.75	0.080
776.19	0.083
776.62	0.081
777.06	0.079
777.50	0.084
777.94	0.081
778.37	0.082
778.81	0.083
779.25	0.079
779.69	0.082
780.13	0.082
780.56	0.080
781.00	0.083
781.44	0.080
781.88	0.082
782.31	0.080
782.75	0.078
783.19	0.081
783.63	0.082
784.06	0.083
784.50	0.080
784.94	0.085
785.37	0.079
785.81	0.082
786.25	0.082
786.69	0.086
787.12	0.083
787.56	0.081
788.00	0.083
788.43	0.085
788.87	0.083
789.31	0.083
789.75	0.082
790.18	0.083
790.62	0.080
791.06	0.082
791.49	0.084
791.93	0.081
792.37	0.076
792.80	0.082
793.24	0.082
793.68	0.082
794.11	0.084
794.55	0.083
794.99	0.083
795.42	0.085
795.86	0.087
796.30	0.083
796.73	0.083
797.17	0.081
797.61	0.083
798.04	0.083
798.48	0.082
798.91	0.083
799.35	0.084
799.79	0.080
800.22	0.082
800.66	0.081
801.10	0.087
801.53	0.082
801.97	0.083
802.40	0.079
802.84	0.082
803.28	0.077
803.71	0.081
804.15	0.085
804.58	0.087
805.02	0.082
805.46	0.080
805.89	0.083
806.33	0.084
806.76	0.081
807.20	0.084
807.63	0.081
808.07	0.083
808.51	0.083
808.94	0.082
809.38	0.080
809.81	0.085
810.25	0.082
810.68	0.084
811.12	0.082
811.55	0.083
811.99	0.082
812.42	0.086
812.86	0.083
813.29	0.080
813.73	0.084
814.17	0.078
814.60	0.080
815.04	0.081
815.47	0.081
815.91	0.077
816.34	0.080
816.78	0.085
817.21	0.086
817.65	0.082
818.08	0.084
818.52	0.083
818.95	0.082
819.39	0.085
819.82	0.083
820.25	0.081
820.69	0.083
821.12	0.089
821.56	0.086
821.99	0.085
822.43	0.081
822.86	0.085
823.30	0.085
823.73	0.082
824.17	0.086
824.60	0.083
825.04	0.083
825.47	0.084
825.90	0.080
826.34	0.086
826.77	0.085
827.21	0.087
827.64	0.086
828.08	0.089
828.51	0.084
828.94	0.088
829.38	0.086
829.81	0.087
830.25	0.089
830.68	0.089
831.11	0.091
831.55	0.088
831.98	0.093
832.42	0.089
832.85	0.090
833.28	0.089
833.72	0.094
834.15	0.097
834.58	0.087
835.02	0.088
835.45	0.093
835.88	0.091
836.32	0.093
836.75	0.093
837.19	0.091
837.62	0.085
838.05	0.094
838.49	0.095
838.92	0.089
839.35	0.088
839.79	0.092
840.22	0.092
840.65	0.091
841.09	0.094
841.52	0.096
841.95	0.089
842.39	0.092
842.82	0.099
843.25	0.094
843.68	0.090
844.12	0.095
844.55	0.089
844.98	0.093
845.42	0.090
845.85	0.094
846.28	0.096
846.71	0.089
847.15	0.093
847.58	0.091
848.01	0.096
848.45	0.094
848.88	0.092
849.31	0.094
849.74	0.094
850.18	0.093
850.61	0.097
851.04	0.091
851.47	0.090
851.91	0.089
852.34	0.100
852.77	0.095
853.20	0.091
853.64	0.096
854.07	0.098
854.50	0.091
854.93	0.090
855.36	0.096
855.80	0.095
856.23	0.093
856.66	0.098
857.09	0.101
857.52	0.093
857.96	0.096
858.39	0.101
858.82	0.097
859.25	0.098
859.68	0.097
860.12	0.094
860.55	0.093
860.98	0.093
861.41	0.098
861.84	0.098
862.27	0.099
862.71	0.098
863.14	0.096
863.57	0.096
864.00	0.093
864.43	0.088
864.86	0.105
865.30	0.099
865.73	0.097
866.16	0.094
866.59	0.102
867.02	0.095
867.45	0.097
867.88	0.100
868.31	0.105
868.75	0.098
869.18	0.099
869.61	0.102
870.04	0.101
870.47	0.097
870.90	0.106
871.33	0.097
871.76	0.096
872.19	0.099
872.62	0.104
873.06	0.100
873.49	0.095
873.92	0.100
874.35	0.101
874.78	0.105
875.21	0.102
875.64	0.103
876.07	0.101
876.50	0.104
876.93	0.101
877.36	0.106
877.79	0.097
878.22	0.102
878.65	0.102
879.08	0.106
879.51	0.102
879.94	0.103
880.37	0.102
880.80	0.103
881.23	0.100
881.67	0.107
882.10	0.106
882.53	0.103
882.96	0.107
883.39	0.112
883.82	0.106
884.25	0.106
884.68	0.106
885.11	0.104
885.54	0.102
885.97	0.098
886.39	0.098
886.82	0.103
887.25	0.104
887.68	0.109
888.11	0.105
888.54	0.107
888.97	0.100
889.40	0.107
889.83	0.109
890.26	0.107
890.69	0.102
891.12	0.108
891.55	0.107
891.98	0.105
892.41	0.110
892.84	0.108
893.27	0.105
893.70	0.101
894.13	0.102
894.56	0.105
894.98	0.104
895.41	0.103
895.84	0.109
896.27	0.105
896.70	0.102
897.13	0.104
897.56	0.108
897.99	0.102
898.42	0.105
898.85	0.110
899.27	0.109
899.70	0.108
900.13	0.107
900.56	0.111
900.99	0.105
901.42	0.104
901.85	0.109
902.28	0.115
902.70	0.109
903.13	0.109
903.56	0.112
903.99	0.112
904.42	0.109
904.85	0.108
905.27	0.107
905.70	0.107
906.13	0.107
906.56	0.108
906.99	0.106
907.42	0.106
907.84	0.107
908.27	0.111
908.70	0.104
909.13	0.106
909.56	0.106
909.98	0.105
910.41	0.108
910.84	0.104
911.27	0.104
911.70	0.104
912.12	0.106
912.55	0.106
912.98	0.106
913.41	0.106
913.84	0.104
914.26	0.106
914.69	0.103
915.12	0.105
915.55	0.104
915.97	0.107
916.40	0.106
916.83	0.107
917.26	0.107
917.68	0.109
918.11	0.110
918.54	0.110
918.97	0.105
919.39	0.106
919.82	0.110
920.25	0.109
920.67	0.109
921.10	0.105
921.53	0.109
921.96	0.111
922.38	0.110
922.81	0.110
923.24	0.113
923.66	0.112
924.09	0.112
924.52	0.115
924.94	0.114
925.37	0.116
925.80	0.113
926.22	0.117
926.65	0.116
927.08	0.112
927.50	0.115
927.93	0.120
928.36	0.118
928.78	0.118
929.21	0.119
929.64	0.123
930.06	0.121
930.49	0.127
930.92	0.121
931.34	0.126
931.77	0.125
932.20	0.124
932.62	0.125
933.05	0.124
933.47	0.128
933.90	0.129
934.33	0.135
934.75	0.131
935.18	0.133
935.61	0.131
936.03	0.137
936.46	0.136
936.88	0.139
937.31	0.144
937.73	0.148
938.16	0.144
938.59	0.156
939.01	0.155
939.44	0.153
939.86	0.152
940.29	0.157
940.71	0.158
941.14	0.155
941.57	0.161
941.99	0.164
942.42	0.162
942.84	0.168
943.27	0.174
943.69	0.179
944.12	0.174
944.54	0.180
944.97	0.175
945.39	0.183
945.82	0.185
946.24	0.183
946.67	0.186
947.09	0.189
947.52	0.186
947.94	0.193
948.37	0.189
948.79	0.196
949.22	0.197
949.64	0.198
950.07	0.196
950.49	0.206
950.92	0.203
951.34	0.205
951.77	0.211
952.19	0.208
952.62	0.212
953.04	0.216
953.47	0.220
953.89	0.228
954.32	0.221
954.74	0.233
955.17	0.228
955.59	0.232
956.01	0.238
956.44	0.240
956.86	0.243
957.29	0.249
957.71	0.251
958.14	0.250
958.56	0.255
958.98	0.257
959.41	0.255
959.83	0.259
960.26	0.264
960.68	0.263
961.10	0.272
961.53	0.263
961.95	0.264
962.38	0.267
962.80	0.277
963.22	0.271
963.65	0.268
964.07	0.267
964.50	0.274
964.92	0.275
965.34	0.274
965.77	0.276
966.19	0.276
966.61	0.268
967.04	0.275
967.46	0.278
967.88	0.270
968.31	0.277
968.73	0.277
969.15	0.279
969.58	0.279
970.00	0.277
970.42	0.283
970.85	0.278
971.27	0.280
971.69	0.285
972.12	0.281
972.54	0.275
972.96	0.280
973.39	0.288
973.81	0.285
974.23	0.281
974.65	0.282
975.08	0.287
975.50	0.282
975.92	0.277
976.35	0.279
976.77	0.283
977.19	0.283
977.61	0.283
978.04	0.283
978.46	0.278
978.88	0.282
979.30	0.278
979.73	0.283
980.15	0.282
980.57	0.280
980.99	0.283
981.42	0.280
981.84	0.283
982.26	0.292
982.68	0.286
983.11	0.280
983.53	0.282
983.95	0.286
984.37	0.278
984.79	0.273
985.22	0.274
985.64	0.284
986.06	0.273
986.48	0.276
986.90	0.281
987.33	0.276
987.75	0.276
988.17	0.279
988.59	0.276
989.01	0.270
989.43	0.267
989.86	0.277
990.28	0.266
990.70	0.267
991.12	0.271
991.54	0.276
991.96	0.270
992.39	0.257
992.81	0.268
993.23	0.266
993.65	0.261
994.07	0.262
994.49	0.268
994.91	0.267
995.34	0.261
995.76	0.267
996.18	0.266
996.60	0.253
997.02	0.254
997.44	0.267
997.86	0.264
998.28	0.258
998.70	0.260
999.12	0.259
999.55	0.255
999.97	0.254
1000.39	0.262
1000.81	0.253
1001.23	0.252
1001.65	0.251
1002.07	0.254
1002.49	0.256
1002.91	0.250
1003.33	0.254
1003.75	0.254
1004.17	0.254
1004.59	0.252
1005.01	0.254
1005.43	0.241
1005.85	0.240
1006.28	0.238
1006.70	0.251
1007.12	0.248
1007.54	0.234
1007.96	0.247
1008.38	0.249
1008.80	0.243
1009.22	0.239
1009.64	0.250
1010.06	0.246
1010.48	0.242
1010.90	0.249
1011.32	0.244
1011.74	0.234
1012.16	0.235
1012.58	0.246
1013.00	0.229
1013.42	0.232
1013.84	0.233
1014.26	0.230
1014.67	0.233
1015.09	0.224
1015.51	0.232
1015.93	0.230
1016.35	0.218
1016.77	0.225
1017.19	0.228
1017.61	0.209
1018.03	0.209
1018.45	0.233
1018.87	0.235
1019.29	0.222
1019.71	0.218
1020.13	0.221
1020.55	0.229
1020.97	0.214
1021.38	0.209
1021.80	0.229
1022.22	0.223
1022.64	0.211
1023.06	0.228
1023.48	0.217
1023.90	0.205
1024.32	0.208
1024.74	0.199
1025.15	0.226
1025.57	0.221
1025.99	0.225
1026.41	0.219
1026.83	0.223
1027.25	0.208
1027.67	0.223
1028.08	0.201
1028.50	0.208
1028.92	0.198
1029.34	0.222
1029.76	0.219
1030.18	0.200
1030.60	0.205
1031.01	0.214
1031.43	0.187
1031.85	0.198
1032.27	0.207
1032.69	0.197
1033.10	0.199
1033.52	0.206
1033.94	0.216
1034.36	0.192
1034.78	0.199
1035.19	0.200
1035.61	0.216
1036.03	0.185
1036.45	0.200
1036.87	0.217
1037.28	0.188
1037.70	0.177
1038.12	0.217
1038.54	0.203
1038.95	0.189
1039.37	0.193
1039.79	0.211
1040.21	0.197
1040.62	0.173
1041.04	0.216
1041.46	0.208
1041.88	0.212
1042.29	0.190
1042.71	0.207
1043.13	0.192
1043.55	0.181
1043.96	0.202
1044.38	0.202
1044.80	0.219
1045.21	0.191
1045.63	0.223
1046.05	0.206
1046.47	0.198
1046.88	0.196
1047.30	0.205
1047.72	0.213
1048.13	0.174
1048.55	0.216
1048.97	0.211
1049.38	0.171
1049.80	0.159
1050.22	0.223
1050.63	0.225
1051.05	0.175
1051.47	0.218
1051.88	0.210
1052.30	0.171
1052.72	0.194
1053.13	0.240
1053.55	0.232
1053.97	0.176
1054.38	0.227
1054.80	0.231
1055.21	0.226
1055.63	0.183
1056.05	0.225
1056.46	0.255
1056.88	0.220
1057.29	0.205
1057.71	0.291
1058.13	0.229
1058.54	0.182
1058.96	0.238
1059.37	0.302
1059.79	0.238
1060.21	0.217
1060.62	0.282
1061.04	0.312
1061.45	0.215
1061.87	0.315
1062.28	0.328
1062.70	0.350
1063.12	0.273
1063.53	0.342
1063.95	0.448
1064.36	0.274
1064.78	0.252
1065.19	0.338
1065.61	0.420
1066.02	0.186
1066.44	0.370
1066.85	0.487
1067.27	0.371
1067.68	0.291
1068.10	0.437
1068.51	0.513
1068.93	0.384
1069.35	0.428
1069.76	0.696
1070.17	0.481
1070.59	0.225
1071.00	0.837
1071.42	0.536
1071.83	0.415
1072.25	0.526
1072.66	0.989
1073.08	0.781
1073.49	0.686
1073.91	0.775
1074.32	-0.000
1074.74	1.211
1075.15	0.755
1075.57	1.417
1075.98	1.529
1076.40	0.655
1076.81	1.318
1077.22	-0.000
1077.64	-0.000
1078.05	-0.000
1078.47	-0.000
1078.88	-0.000
1079.30	1.752
1079.71	-0.000
1080.12	-0.000
1080.54	-0.000
1080.95	-0.000
1081.37	-0.000
1081.78	-0.000
1082.19	-0.000
1082.61	-0.000
1083.02	-0.000
1083.44	-0.000
1083.85	-0.000
1084.26	-0.000
1084.68	-0.000
1085.09	-0.000
1085.50	-0.000
1085.92	-0.000
1086.33	-0.000
1086.74	-0.000
1087.16	-0.000
1087.57	-0.000
1087.98	-0.000
1088.40	-0.000
1088.81	-0.000
1089.22	-0.000
1089.64	-0.000
1090.05	-0.000
1090.46	-0.000
1090.88	-0.000
1091.29	-0.000
1091.70	-0.000
1092.12	-0.000
1092.53	-0.000
1092.94	-0.000
1093.36	-0.000
1093.77	-0.000
1094.18	-0.000
1094.59	-0.000
1095.01	-0.000
1095.42	-0.000
1095.83	-0.000
1096.25	-0.000
1096.66	-0.000
1097.07	-0.000
1097.48	-0.000
1097.90	-0.000
1098.31	-0.000
1098.72	-0.000
1099.13	-0.000
>>>>>End Processed Spectral Data<<<<<
