SpectraSuite Data File
++++++++++++++++++++++++++++++++++++
Date: Sun Apr 24 15:30:40 CEST 2016
User: spectrasuite
Dark Spectrum Present: Yes
Reference Spectrum Present: Yes
Number of Sampled Component Spectra: 1
Spectrometers: HR+C0708
Integration Time (usec): 1000 (HR+C0708)
Spectra Averaged: 10 (HR+C0708)
Boxcar Smoothing: 0 (HR+C0708)
Correct for Electrical Dark: No (HR+C0708)
Strobe/Lamp Enabled: No (HR+C0708)
Correct for Detector Non-linearity: No (HR+C0708)
Correct for Stray Light: No (HR+C0708)
Number of Pixels in Processed Spectrum: 2048
>>>>>Begin Processed Spectral Data<<<<<
188.76	-0.000
189.23	-0.000
189.70	-0.000
190.17	-0.000
190.64	-0.000
191.12	-0.000
191.59	-0.000
192.06	-0.000
192.53	-0.000
193.01	-0.000
193.48	-0.000
193.95	-0.000
194.42	-0.000
194.90	1.290
195.37	-0.000
195.84	-0.000
196.31	-0.000
196.78	-0.000
197.26	-0.000
197.73	-0.000
198.20	-0.000
198.67	-0.000
199.14	-0.000
199.62	-0.000
200.09	1.054
200.56	-0.000
201.03	-0.000
201.50	1.720
201.97	1.170
202.45	-0.000
202.92	1.195
203.39	1.436
203.86	-0.000
204.33	-0.000
204.80	-0.000
205.28	1.038
205.75	-0.000
206.22	-0.000
206.69	1.329
207.16	-0.000
207.63	-0.000
208.11	0.950
208.58	1.251
209.05	1.934
209.52	-0.000
209.99	1.191
210.46	1.169
210.93	-0.000
211.41	1.875
211.88	0.901
212.35	-0.000
212.82	-0.000
213.29	1.377
213.76	0.729
214.23	-0.000
214.70	-0.000
215.18	1.151
215.65	0.937
216.12	1.747
216.59	2.721
217.06	1.036
217.53	1.105
218.00	-0.000
218.47	1.143
218.94	1.155
219.41	-0.000
219.89	-0.000
220.36	-0.000
220.83	1.014
221.30	-0.000
221.77	1.268
222.24	1.968
222.71	-0.000
223.18	-0.000
223.65	1.167
224.12	-0.000
224.59	-0.000
225.06	-0.000
225.54	1.684
226.01	0.918
226.48	-0.000
226.95	-0.000
227.42	1.270
227.89	-0.000
228.36	2.365
228.83	1.934
229.30	1.693
229.77	-0.000
230.24	1.900
230.71	-0.000
231.18	-0.000
231.65	-0.000
232.12	2.230
232.59	1.905
233.06	-0.000
233.53	3.063
234.00	1.975
234.47	2.565
234.94	-0.000
235.41	2.167
235.88	3.635
236.35	2.808
236.82	2.747
237.29	3.274
237.76	2.513
238.23	-0.000
238.70	3.048
239.17	2.125
239.64	-0.000
240.11	-0.000
240.58	2.709
241.05	2.603
241.52	-0.000
241.99	4.218
242.46	2.630
242.93	2.841
243.40	3.436
243.87	2.540
244.34	2.445
244.81	-0.000
245.28	-0.000
245.75	-0.000
246.22	4.190
246.69	-0.000
247.16	3.608
247.63	3.006
248.10	2.801
248.57	-0.000
249.04	3.559
249.51	3.062
249.98	-0.000
250.45	3.537
250.92	3.532
251.39	3.285
251.85	-0.000
252.32	-0.000
252.79	3.407
253.26	3.286
253.73	-0.000
254.20	-0.000
254.67	2.753
255.14	3.079
255.61	-0.000
256.08	-0.000
256.55	-0.000
257.02	3.967
257.49	3.680
257.95	2.866
258.42	2.977
258.89	-0.000
259.36	3.378
259.83	3.083
260.30	4.336
260.77	-0.000
261.24	3.150
261.71	3.656
262.17	-0.000
262.64	3.063
263.11	2.886
263.58	3.134
264.05	3.265
264.52	2.957
264.99	2.903
265.46	3.037
265.92	3.752
266.39	2.767
266.86	3.627
267.33	3.537
267.80	2.701
268.27	2.965
268.74	3.048
269.20	-0.000
269.67	2.946
270.14	2.632
270.61	2.861
271.08	2.686
271.55	2.637
272.01	2.779
272.48	3.071
272.95	2.574
273.42	2.613
273.89	2.855
274.36	2.799
274.82	2.504
275.29	2.627
275.76	2.799
276.23	2.737
276.70	2.626
277.16	2.595
277.63	2.626
278.10	2.450
278.57	2.484
279.04	2.571
279.50	2.550
279.97	2.503
280.44	2.394
280.91	2.446
281.38	2.368
281.84	2.545
282.31	2.459
282.78	2.577
283.25	2.343
283.72	2.344
284.18	2.533
284.65	2.422
285.12	2.316
285.59	2.301
286.05	2.438
286.52	2.345
286.99	2.301
287.46	2.360
287.92	2.328
288.39	2.245
288.86	2.313
289.33	2.283
289.79	2.231
290.26	2.220
290.73	2.263
291.20	2.261
291.66	2.224
292.13	2.200
292.60	2.183
293.07	2.250
293.53	2.092
294.00	2.188
294.47	2.247
294.93	2.193
295.40	2.141
295.87	2.149
296.34	2.195
296.80	2.099
297.27	2.108
297.74	2.117
298.20	2.183
298.67	2.058
299.14	2.106
299.60	2.130
300.07	2.069
300.54	2.057
301.01	2.077
301.47	2.060
301.94	1.977
302.41	2.006
302.87	2.034
303.34	2.074
303.81	1.991
304.27	2.011
304.74	1.990
305.21	1.959
305.67	1.965
306.14	1.977
306.61	2.009
307.07	1.945
307.54	1.944
308.01	1.967
308.47	1.934
308.94	1.950
309.40	1.961
309.87	1.939
310.34	1.898
310.80	1.938
311.27	1.916
311.74	1.891
312.20	1.900
312.67	1.896
313.13	1.861
313.60	1.896
314.07	1.873
314.53	1.842
315.00	1.828
315.47	1.852
315.93	1.860
316.40	1.839
316.86	1.851
317.33	1.804
317.80	1.810
318.26	1.839
318.73	1.827
319.19	1.793
319.66	1.786
320.13	1.785
320.59	1.767
321.06	1.774
321.52	1.814
321.99	1.762
322.45	1.735
322.92	1.740
323.39	1.739
323.85	1.735
324.32	1.729
324.78	1.734
325.25	1.733
325.71	1.697
326.18	1.700
326.64	1.738
327.11	1.701
327.58	1.671
328.04	1.683
328.51	1.702
328.97	1.662
329.44	1.648
329.90	1.659
330.37	1.647
330.83	1.607
331.30	1.619
331.76	1.612
332.23	1.571
332.69	1.575
333.16	1.568
333.62	1.551
334.09	1.542
334.56	1.521
335.02	1.524
335.49	1.504
335.95	1.466
336.42	1.464
336.88	1.454
337.35	1.426
337.81	1.422
338.28	1.404
338.74	1.400
339.20	1.373
339.67	1.343
340.13	1.342
340.60	1.308
341.06	1.275
341.53	1.274
341.99	1.264
342.46	1.224
342.92	1.203
343.39	1.187
343.85	1.177
344.32	1.160
344.78	1.144
345.25	1.129
345.71	1.094
346.17	1.083
346.64	1.064
347.10	1.047
347.57	1.013
348.03	0.999
348.50	0.980
348.96	0.958
349.43	0.939
349.89	0.927
350.35	0.916
350.82	0.887
351.28	0.880
351.75	0.867
352.21	0.856
352.67	0.830
353.14	0.826
353.60	0.817
354.07	0.799
354.53	0.776
355.00	0.772
355.46	0.763
355.92	0.741
356.39	0.727
356.85	0.737
357.31	0.718
357.78	0.709
358.24	0.700
358.71	0.694
359.17	0.681
359.63	0.679
360.10	0.678
360.56	0.667
361.03	0.662
361.49	0.656
361.95	0.653
362.42	0.645
362.88	0.641
363.34	0.635
363.81	0.634
364.27	0.634
364.73	0.622
365.20	0.625
365.66	0.619
366.12	0.618
366.59	0.612
367.05	0.614
367.51	0.605
367.98	0.600
368.44	0.601
368.90	0.600
369.37	0.592
369.83	0.594
370.29	0.597
370.76	0.584
371.22	0.589
371.68	0.585
372.15	0.581
372.61	0.578
373.07	0.580
373.54	0.578
374.00	0.575
374.46	0.572
374.92	0.570
375.39	0.572
375.85	0.567
376.31	0.566
376.78	0.563
377.24	0.564
377.70	0.560
378.16	0.557
378.63	0.560
379.09	0.555
379.55	0.550
380.01	0.553
380.48	0.553
380.94	0.546
381.40	0.545
381.87	0.543
382.33	0.544
382.79	0.540
383.25	0.540
383.72	0.540
384.18	0.537
384.64	0.531
385.10	0.534
385.56	0.534
386.03	0.526
386.49	0.528
386.95	0.526
387.41	0.526
387.88	0.521
388.34	0.518
388.80	0.520
389.26	0.520
389.72	0.517
390.19	0.520
390.65	0.515
391.11	0.515
391.57	0.513
392.04	0.510
392.50	0.510
392.96	0.505
393.42	0.504
393.88	0.505
394.34	0.502
394.81	0.502
395.27	0.501
395.73	0.500
396.19	0.497
396.65	0.494
397.12	0.491
397.58	0.494
398.04	0.490
398.50	0.493
398.96	0.488
399.42	0.490
399.89	0.487
400.35	0.488
400.81	0.481
401.27	0.482
401.73	0.483
402.19	0.482
402.65	0.475
403.12	0.472
403.58	0.474
404.04	0.474
404.50	0.476
404.96	0.470
405.42	0.472
405.88	0.471
406.34	0.468
406.81	0.465
407.27	0.468
407.73	0.466
408.19	0.461
408.65	0.459
409.11	0.459
409.57	0.463
410.03	0.455
410.49	0.456
410.96	0.458
411.42	0.455
411.88	0.453
412.34	0.449
412.80	0.450
413.26	0.448
413.72	0.449
414.18	0.448
414.64	0.444
415.10	0.446
415.56	0.448
416.02	0.442
416.48	0.440
416.95	0.440
417.41	0.443
417.87	0.437
418.33	0.440
418.79	0.435
419.25	0.433
419.71	0.435
420.17	0.431
420.63	0.431
421.09	0.430
421.55	0.427
422.01	0.429
422.47	0.428
422.93	0.428
423.39	0.426
423.85	0.428
424.31	0.423
424.77	0.421
425.23	0.424
425.69	0.427
426.15	0.420
426.61	0.420
427.07	0.415
427.53	0.419
427.99	0.412
428.45	0.414
428.91	0.417
429.37	0.413
429.83	0.408
430.29	0.412
430.75	0.411
431.21	0.410
431.67	0.412
432.13	0.408
432.59	0.405
433.05	0.405
433.51	0.403
433.97	0.401
434.43	0.402
434.89	0.404
435.35	0.402
435.81	0.401
436.27	0.397
436.73	0.397
437.19	0.398
437.65	0.400
438.11	0.394
438.57	0.396
439.03	0.396
439.48	0.388
439.94	0.389
440.40	0.390
440.86	0.396
441.32	0.387
441.78	0.388
442.24	0.387
442.70	0.386
443.16	0.380
443.62	0.384
444.08	0.382
444.54	0.382
444.99	0.376
445.45	0.384
445.91	0.381
446.37	0.379
446.83	0.378
447.29	0.378
447.75	0.376
448.21	0.377
448.67	0.375
449.12	0.373
449.58	0.374
450.04	0.369
450.50	0.372
450.96	0.371
451.42	0.366
451.88	0.368
452.34	0.368
452.79	0.365
453.25	0.365
453.71	0.364
454.17	0.367
454.63	0.365
455.09	0.363
455.55	0.366
456.00	0.361
456.46	0.361
456.92	0.360
457.38	0.362
457.84	0.355
458.30	0.355
458.75	0.361
459.21	0.355
459.67	0.356
460.13	0.355
460.59	0.354
461.04	0.348
461.50	0.351
461.96	0.351
462.42	0.351
462.88	0.349
463.33	0.349
463.79	0.348
464.25	0.348
464.71	0.347
465.17	0.347
465.62	0.344
466.08	0.345
466.54	0.342
467.00	0.344
467.46	0.345
467.91	0.341
468.37	0.342
468.83	0.342
469.29	0.340
469.74	0.340
470.20	0.339
470.66	0.335
471.12	0.334
471.57	0.336
472.03	0.337
472.49	0.337
472.95	0.335
473.40	0.333
473.86	0.332
474.32	0.328
474.78	0.333
475.23	0.331
475.69	0.330
476.15	0.330
476.60	0.330
477.06	0.331
477.52	0.326
477.98	0.328
478.43	0.324
478.89	0.326
479.35	0.324
479.80	0.323
480.26	0.324
480.72	0.323
481.18	0.324
481.63	0.322
482.09	0.319
482.55	0.322
483.00	0.319
483.46	0.317
483.92	0.318
484.37	0.318
484.83	0.315
485.29	0.315
485.74	0.313
486.20	0.316
486.66	0.317
487.11	0.314
487.57	0.313
488.03	0.312
488.48	0.312
488.94	0.310
489.40	0.311
489.85	0.311
490.31	0.311
490.77	0.309
491.22	0.308
491.68	0.306
492.13	0.305
492.59	0.305
493.05	0.306
493.50	0.306
493.96	0.303
494.42	0.303
494.87	0.303
495.33	0.300
495.78	0.304
496.24	0.302
496.70	0.302
497.15	0.300
497.61	0.301
498.06	0.299
498.52	0.297
498.98	0.297
499.43	0.299
499.89	0.297
500.34	0.294
500.80	0.294
501.25	0.294
501.71	0.292
502.17	0.296
502.62	0.295
503.08	0.292
503.53	0.291
503.99	0.291
504.44	0.295
504.90	0.291
505.36	0.290
505.81	0.292
506.27	0.290
506.72	0.290
507.18	0.289
507.63	0.287
508.09	0.289
508.54	0.287
509.00	0.287
509.45	0.287
509.91	0.286
510.36	0.285
510.82	0.282
511.27	0.283
511.73	0.283
512.19	0.280
512.64	0.282
513.10	0.281
513.55	0.282
514.01	0.279
514.46	0.279
514.92	0.280
515.37	0.279
515.83	0.281
516.28	0.276
516.73	0.278
517.19	0.277
517.64	0.272
518.10	0.275
518.55	0.275
519.01	0.274
519.46	0.275
519.92	0.275
520.37	0.271
520.83	0.271
521.28	0.272
521.74	0.272
522.19	0.272
522.65	0.270
523.10	0.270
523.55	0.269
524.01	0.274
524.46	0.271
524.92	0.266
525.37	0.268
525.83	0.268
526.28	0.266
526.73	0.268
527.19	0.269
527.64	0.267
528.10	0.264
528.55	0.263
529.01	0.266
529.46	0.263
529.91	0.262
530.37	0.262
530.82	0.261
531.28	0.261
531.73	0.260
532.18	0.260
532.64	0.260
533.09	0.258
533.54	0.260
534.00	0.257
534.45	0.261
534.91	0.260
535.36	0.259
535.81	0.256
536.27	0.257
536.72	0.258
537.17	0.257
537.63	0.255
538.08	0.255
538.54	0.255
538.99	0.253
539.44	0.254
539.90	0.255
540.35	0.253
540.80	0.250
541.26	0.252
541.71	0.249
542.16	0.250
542.62	0.251
543.07	0.252
543.52	0.251
543.98	0.252
544.43	0.249
544.88	0.246
545.34	0.250
545.79	0.249
546.24	0.247
546.69	0.248
547.15	0.247
547.60	0.246
548.05	0.248
548.51	0.244
548.96	0.246
549.41	0.248
549.86	0.246
550.32	0.246
550.77	0.246
551.22	0.242
551.68	0.242
552.13	0.239
552.58	0.239
553.03	0.241
553.49	0.240
553.94	0.238
554.39	0.241
554.84	0.240
555.30	0.241
555.75	0.237
556.20	0.238
556.65	0.237
557.11	0.238
557.56	0.235
558.01	0.237
558.46	0.238
558.92	0.235
559.37	0.236
559.82	0.235
560.27	0.235
560.72	0.233
561.18	0.233
561.63	0.235
562.08	0.233
562.53	0.234
562.99	0.235
563.44	0.233
563.89	0.232
564.34	0.232
564.79	0.233
565.25	0.230
565.70	0.228
566.15	0.228
566.60	0.227
567.05	0.229
567.50	0.229
567.96	0.229
568.41	0.228
568.86	0.226
569.31	0.225
569.76	0.226
570.21	0.226
570.67	0.226
571.12	0.225
571.57	0.226
572.02	0.224
572.47	0.223
572.92	0.223
573.37	0.223
573.83	0.222
574.28	0.225
574.73	0.223
575.18	0.223
575.63	0.222
576.08	0.220
576.53	0.219
576.98	0.220
577.44	0.218
577.89	0.221
578.34	0.219
578.79	0.217
579.24	0.217
579.69	0.219
580.14	0.215
580.59	0.215
581.04	0.214
581.49	0.215
581.95	0.216
582.40	0.216
582.85	0.215
583.30	0.213
583.75	0.214
584.20	0.214
584.65	0.214
585.10	0.212
585.55	0.212
586.00	0.212
586.45	0.211
586.90	0.212
587.35	0.210
587.80	0.210
588.25	0.213
588.71	0.209
589.16	0.211
589.61	0.210
590.06	0.210
590.51	0.209
590.96	0.209
591.41	0.209
591.86	0.208
592.31	0.207
592.76	0.207
593.21	0.209
593.66	0.208
594.11	0.206
594.56	0.207
595.01	0.207
595.46	0.207
595.91	0.206
596.36	0.206
596.81	0.207
597.26	0.206
597.71	0.204
598.16	0.204
598.61	0.203
599.06	0.204
599.51	0.206
599.96	0.205
600.41	0.207
600.86	0.204
601.31	0.203
601.76	0.203
602.21	0.203
602.65	0.203
603.10	0.202
603.55	0.201
604.00	0.202
604.45	0.201
604.90	0.202
605.35	0.201
605.80	0.200
606.25	0.202
606.70	0.200
607.15	0.199
607.60	0.198
608.05	0.197
608.50	0.197
608.95	0.196
609.39	0.200
609.84	0.199
610.29	0.196
610.74	0.196
611.19	0.196
611.64	0.195
612.09	0.196
612.54	0.196
612.99	0.195
613.44	0.196
613.88	0.195
614.33	0.194
614.78	0.193
615.23	0.193
615.68	0.192
616.13	0.194
616.58	0.192
617.03	0.192
617.47	0.193
617.92	0.192
618.37	0.191
618.82	0.193
619.27	0.192
619.72	0.191
620.17	0.189
620.61	0.190
621.06	0.189
621.51	0.191
621.96	0.188
622.41	0.190
622.86	0.187
623.30	0.187
623.75	0.191
624.20	0.188
624.65	0.187
625.10	0.188
625.54	0.187
625.99	0.188
626.44	0.187
626.89	0.186
627.34	0.189
627.78	0.185
628.23	0.186
628.68	0.185
629.13	0.182
629.58	0.184
630.02	0.183
630.47	0.183
630.92	0.184
631.37	0.182
631.81	0.184
632.26	0.183
632.71	0.183
633.16	0.183
633.61	0.182
634.05	0.179
634.50	0.180
634.95	0.182
635.40	0.183
635.84	0.182
636.29	0.181
636.74	0.181
637.18	0.180
637.63	0.180
638.08	0.180
638.53	0.180
638.97	0.179
639.42	0.179
639.87	0.178
640.32	0.176
640.76	0.179
641.21	0.177
641.66	0.178
642.10	0.178
642.55	0.177
643.00	0.177
643.44	0.176
643.89	0.178
644.34	0.177
644.79	0.175
645.23	0.175
645.68	0.176
646.13	0.176
646.57	0.176
647.02	0.173
647.47	0.178
647.91	0.175
648.36	0.175
648.81	0.175
649.25	0.174
649.70	0.172
650.15	0.172
650.59	0.174
651.04	0.173
651.48	0.173
651.93	0.172
652.38	0.172
652.82	0.173
653.27	0.171
653.72	0.174
654.16	0.171
654.61	0.171
655.06	0.171
655.50	0.171
655.95	0.167
656.39	0.165
656.84	0.169
657.29	0.173
657.73	0.170
658.18	0.171
658.62	0.170
659.07	0.169
659.52	0.170
659.96	0.170
660.41	0.172
660.85	0.168
661.30	0.167
661.74	0.171
662.19	0.167
662.64	0.167
663.08	0.166
663.53	0.168
663.97	0.167
664.42	0.167
664.86	0.169
665.31	0.168
665.75	0.167
666.20	0.168
666.65	0.168
667.09	0.167
667.54	0.166
667.98	0.166
668.43	0.166
668.87	0.165
669.32	0.165
669.76	0.165
670.21	0.164
670.65	0.163
671.10	0.165
671.54	0.164
671.99	0.164
672.43	0.162
672.88	0.163
673.32	0.163
673.77	0.162
674.21	0.162
674.66	0.162
675.10	0.163
675.55	0.159
675.99	0.163
676.44	0.161
676.88	0.163
677.33	0.161
677.77	0.162
678.22	0.160
678.66	0.160
679.11	0.160
679.55	0.161
679.99	0.161
680.44	0.162
680.88	0.159
681.33	0.159
681.77	0.157
682.22	0.160
682.66	0.159
683.11	0.158
683.55	0.157
683.99	0.158
684.44	0.159
684.88	0.157
685.33	0.158
685.77	0.158
686.21	0.158
686.66	0.158
687.10	0.156
687.55	0.154
687.99	0.160
688.44	0.158
688.88	0.158
689.32	0.159
689.77	0.155
690.21	0.155
690.65	0.156
691.10	0.156
691.54	0.154
691.99	0.154
692.43	0.154
692.87	0.154
693.32	0.156
693.76	0.157
694.20	0.156
694.65	0.154
695.09	0.156
695.53	0.156
695.98	0.154
696.42	0.156
696.86	0.154
697.31	0.151
697.75	0.154
698.19	0.151
698.64	0.153
699.08	0.154
699.52	0.149
699.97	0.153
700.41	0.154
700.85	0.155
701.30	0.150
701.74	0.152
702.18	0.154
702.63	0.151
703.07	0.152
703.51	0.152
703.96	0.151
704.40	0.152
704.84	0.153
705.28	0.151
705.73	0.150
706.17	0.151
706.61	0.151
707.06	0.151
707.50	0.152
707.94	0.149
708.38	0.150
708.83	0.152
709.27	0.149
709.71	0.147
710.15	0.151
710.60	0.148
711.04	0.149
711.48	0.151
711.92	0.150
712.37	0.148
712.81	0.151
713.25	0.149
713.69	0.150
714.13	0.150
714.58	0.149
715.02	0.149
715.46	0.148
715.90	0.147
716.35	0.147
716.79	0.149
717.23	0.149
717.67	0.148
718.11	0.149
718.56	0.148
719.00	0.149
719.44	0.148
719.88	0.148
720.32	0.148
720.76	0.149
721.21	0.147
721.65	0.147
722.09	0.148
722.53	0.146
722.97	0.149
723.41	0.147
723.86	0.148
724.30	0.147
724.74	0.149
725.18	0.149
725.62	0.146
726.06	0.149
726.50	0.146
726.95	0.146
727.39	0.149
727.83	0.145
728.27	0.147
728.71	0.148
729.15	0.147
729.59	0.148
730.03	0.146
730.48	0.146
730.92	0.145
731.36	0.147
731.80	0.149
732.24	0.150
732.68	0.146
733.12	0.144
733.56	0.145
734.00	0.145
734.44	0.147
734.89	0.148
735.33	0.147
735.77	0.151
736.21	0.150
736.65	0.146
737.09	0.148
737.53	0.149
737.97	0.148
738.41	0.149
738.85	0.150
739.29	0.149
739.73	0.145
740.17	0.146
740.61	0.146
741.05	0.149
741.49	0.147
741.93	0.146
742.37	0.144
742.81	0.145
743.26	0.146
743.70	0.148
744.14	0.148
744.58	0.144
745.02	0.145
745.46	0.146
745.90	0.145
746.34	0.146
746.78	0.146
747.22	0.145
747.66	0.146
748.10	0.145
748.54	0.146
748.98	0.145
749.42	0.144
749.86	0.145
750.29	0.143
750.73	0.143
751.17	0.143
751.61	0.141
752.05	0.146
752.49	0.141
752.93	0.142
753.37	0.143
753.81	0.141
754.25	0.143
754.69	0.141
755.13	0.143
755.57	0.143
756.01	0.143
756.45	0.144
756.89	0.141
757.33	0.139
757.77	0.139
758.21	0.139
758.64	0.139
759.08	0.135
759.52	0.142
759.96	0.142
760.40	0.140
760.84	0.139
761.28	0.141
761.72	0.140
762.16	0.141
762.60	0.139
763.03	0.139
763.47	0.138
763.91	0.139
764.35	0.140
764.79	0.136
765.23	0.138
765.67	0.138
766.11	0.138
766.54	0.138
766.98	0.139
767.42	0.139
767.86	0.137
768.30	0.137
768.74	0.138
769.17	0.142
769.61	0.139
770.05	0.138
770.49	0.138
770.93	0.138
771.37	0.133
771.80	0.135
772.24	0.136
772.68	0.136
773.12	0.134
773.56	0.134
774.00	0.134
774.43	0.135
774.87	0.134
775.31	0.135
775.75	0.136
776.19	0.137
776.62	0.135
777.06	0.137
777.50	0.136
777.94	0.133
778.37	0.135
778.81	0.135
779.25	0.137
779.69	0.135
780.13	0.137
780.56	0.133
781.00	0.135
781.44	0.133
781.88	0.136
782.31	0.135
782.75	0.131
783.19	0.136
783.63	0.133
784.06	0.131
784.50	0.137
784.94	0.132
785.37	0.132
785.81	0.135
786.25	0.132
786.69	0.133
787.12	0.132
787.56	0.131
788.00	0.134
788.43	0.134
788.87	0.130
789.31	0.129
789.75	0.133
790.18	0.132
790.62	0.131
791.06	0.132
791.49	0.130
791.93	0.128
792.37	0.132
792.80	0.129
793.24	0.132
793.68	0.133
794.11	0.131
794.55	0.134
794.99	0.133
795.42	0.132
795.86	0.134
796.30	0.129
796.73	0.134
797.17	0.133
797.61	0.129
798.04	0.129
798.48	0.132
798.91	0.130
799.35	0.130
799.79	0.134
800.22	0.131
800.66	0.129
801.10	0.130
801.53	0.129
801.97	0.135
802.40	0.133
802.84	0.134
803.28	0.128
803.71	0.130
804.15	0.127
804.58	0.127
805.02	0.131
805.46	0.130
805.89	0.126
806.33	0.127
806.76	0.126
807.20	0.134
807.63	0.129
808.07	0.128
808.51	0.123
808.94	0.124
809.38	0.127
809.81	0.127
810.25	0.132
810.68	0.130
811.12	0.125
811.55	0.130
811.99	0.130
812.42	0.127
812.86	0.127
813.29	0.127
813.73	0.131
814.17	0.127
814.60	0.129
815.04	0.127
815.47	0.127
815.91	0.125
816.34	0.124
816.78	0.127
817.21	0.133
817.65	0.127
818.08	0.130
818.52	0.133
818.95	0.127
819.39	0.126
819.82	0.130
820.25	0.131
820.69	0.124
821.12	0.125
821.56	0.124
821.99	0.125
822.43	0.123
822.86	0.129
823.30	0.133
823.73	0.123
824.17	0.125
824.60	0.126
825.04	0.130
825.47	0.127
825.90	0.126
826.34	0.127
826.77	0.127
827.21	0.131
827.64	0.128
828.08	0.128
828.51	0.126
828.94	0.129
829.38	0.128
829.81	0.131
830.25	0.128
830.68	0.132
831.11	0.131
831.55	0.127
831.98	0.132
832.42	0.132
832.85	0.134
833.28	0.130
833.72	0.131
834.15	0.130
834.58	0.133
835.02	0.126
835.45	0.132
835.88	0.134
836.32	0.136
836.75	0.127
837.19	0.136
837.62	0.130
838.05	0.128
838.49	0.132
838.92	0.135
839.35	0.132
839.79	0.131
840.22	0.138
840.65	0.131
841.09	0.132
841.52	0.133
841.95	0.129
842.39	0.133
842.82	0.129
843.25	0.128
843.68	0.130
844.12	0.128
844.55	0.126
844.98	0.129
845.42	0.128
845.85	0.124
846.28	0.128
846.71	0.131
847.15	0.137
847.58	0.133
848.01	0.135
848.45	0.135
848.88	0.130
849.31	0.135
849.74	0.134
850.18	0.133
850.61	0.131
851.04	0.133
851.47	0.134
851.91	0.129
852.34	0.130
852.77	0.132
853.20	0.131
853.64	0.129
854.07	0.132
854.50	0.130
854.93	0.135
855.36	0.132
855.80	0.133
856.23	0.129
856.66	0.134
857.09	0.129
857.52	0.133
857.96	0.128
858.39	0.129
858.82	0.125
859.25	0.134
859.68	0.135
860.12	0.129
860.55	0.131
860.98	0.131
861.41	0.127
861.84	0.127
862.27	0.131
862.71	0.135
863.14	0.129
863.57	0.137
864.00	0.128
864.43	0.130
864.86	0.131
865.30	0.138
865.73	0.138
866.16	0.134
866.59	0.135
867.02	0.129
867.45	0.130
867.88	0.132
868.31	0.136
868.75	0.135
869.18	0.133
869.61	0.134
870.04	0.131
870.47	0.139
870.90	0.133
871.33	0.134
871.76	0.134
872.19	0.135
872.62	0.126
873.06	0.125
873.49	0.131
873.92	0.132
874.35	0.133
874.78	0.138
875.21	0.130
875.64	0.130
876.07	0.137
876.50	0.134
876.93	0.138
877.36	0.136
877.79	0.134
878.22	0.134
878.65	0.130
879.08	0.133
879.51	0.138
879.94	0.136
880.37	0.135
880.80	0.140
881.23	0.128
881.67	0.134
882.10	0.133
882.53	0.132
882.96	0.134
883.39	0.135
883.82	0.127
884.25	0.133
884.68	0.135
885.11	0.133
885.54	0.134
885.97	0.139
886.39	0.134
886.82	0.131
887.25	0.129
887.68	0.136
888.11	0.130
888.54	0.134
888.97	0.139
889.40	0.136
889.83	0.134
890.26	0.132
890.69	0.137
891.12	0.136
891.55	0.135
891.98	0.134
892.41	0.130
892.84	0.132
893.27	0.136
893.70	0.133
894.13	0.139
894.56	0.137
894.98	0.138
895.41	0.139
895.84	0.137
896.27	0.137
896.70	0.133
897.13	0.143
897.56	0.135
897.99	0.139
898.42	0.133
898.85	0.138
899.27	0.137
899.70	0.139
900.13	0.133
900.56	0.139
900.99	0.141
901.42	0.140
901.85	0.134
902.28	0.135
902.70	0.139
903.13	0.138
903.56	0.140
903.99	0.137
904.42	0.136
904.85	0.140
905.27	0.137
905.70	0.137
906.13	0.143
906.56	0.136
906.99	0.135
907.42	0.137
907.84	0.140
908.27	0.139
908.70	0.140
909.13	0.140
909.56	0.140
909.98	0.136
910.41	0.137
910.84	0.138
911.27	0.144
911.70	0.136
912.12	0.137
912.55	0.135
912.98	0.138
913.41	0.138
913.84	0.137
914.26	0.137
914.69	0.138
915.12	0.141
915.55	0.136
915.97	0.137
916.40	0.138
916.83	0.136
917.26	0.137
917.68	0.137
918.11	0.136
918.54	0.133
918.97	0.133
919.39	0.138
919.82	0.138
920.25	0.135
920.67	0.134
921.10	0.139
921.53	0.139
921.96	0.139
922.38	0.140
922.81	0.137
923.24	0.141
923.66	0.138
924.09	0.139
924.52	0.144
924.94	0.141
925.37	0.144
925.80	0.146
926.22	0.141
926.65	0.141
927.08	0.142
927.50	0.141
927.93	0.145
928.36	0.141
928.78	0.145
929.21	0.146
929.64	0.149
930.06	0.150
930.49	0.151
930.92	0.151
931.34	0.152
931.77	0.153
932.20	0.153
932.62	0.152
933.05	0.155
933.47	0.157
933.90	0.155
934.33	0.156
934.75	0.158
935.18	0.156
935.61	0.159
936.03	0.158
936.46	0.160
936.88	0.166
937.31	0.168
937.73	0.166
938.16	0.163
938.59	0.171
939.01	0.173
939.44	0.172
939.86	0.175
940.29	0.177
940.71	0.176
941.14	0.178
941.57	0.176
941.99	0.178
942.42	0.187
942.84	0.189
943.27	0.194
943.69	0.191
944.12	0.190
944.54	0.199
944.97	0.190
945.39	0.196
945.82	0.197
946.24	0.211
946.67	0.197
947.09	0.198
947.52	0.206
947.94	0.205
948.37	0.214
948.79	0.206
949.22	0.214
949.64	0.213
950.07	0.217
950.49	0.221
950.92	0.227
951.34	0.221
951.77	0.221
952.19	0.226
952.62	0.241
953.04	0.232
953.47	0.238
953.89	0.241
954.32	0.246
954.74	0.240
955.17	0.245
955.59	0.257
956.01	0.252
956.44	0.255
956.86	0.261
957.29	0.267
957.71	0.265
958.14	0.262
958.56	0.268
958.98	0.271
959.41	0.270
959.83	0.272
960.26	0.275
960.68	0.274
961.10	0.280
961.53	0.283
961.95	0.281
962.38	0.279
962.80	0.279
963.22	0.280
963.65	0.282
964.07	0.285
964.50	0.289
964.92	0.289
965.34	0.287
965.77	0.281
966.19	0.290
966.61	0.291
967.04	0.296
967.46	0.290
967.88	0.297
968.31	0.291
968.73	0.283
969.15	0.296
969.58	0.293
970.00	0.281
970.42	0.286
970.85	0.291
971.27	0.289
971.69	0.285
972.12	0.294
972.54	0.299
972.96	0.295
973.39	0.297
973.81	0.302
974.23	0.297
974.65	0.288
975.08	0.294
975.50	0.304
975.92	0.297
976.35	0.301
976.77	0.296
977.19	0.301
977.61	0.290
978.04	0.292
978.46	0.299
978.88	0.296
979.30	0.299
979.73	0.294
980.15	0.300
980.57	0.300
980.99	0.295
981.42	0.295
981.84	0.300
982.26	0.293
982.68	0.300
983.11	0.301
983.53	0.295
983.95	0.298
984.37	0.293
984.79	0.295
985.22	0.297
985.64	0.297
986.06	0.298
986.48	0.294
986.90	0.290
987.33	0.286
987.75	0.293
988.17	0.291
988.59	0.278
989.01	0.279
989.43	0.283
989.86	0.291
990.28	0.291
990.70	0.285
991.12	0.285
991.54	0.286
991.96	0.288
992.39	0.291
992.81	0.277
993.23	0.278
993.65	0.282
994.07	0.280
994.49	0.279
994.91	0.281
995.34	0.275
995.76	0.278
996.18	0.286
996.60	0.281
997.02	0.278
997.44	0.269
997.86	0.271
998.28	0.269
998.70	0.280
999.12	0.273
999.55	0.267
999.97	0.275
1000.39	0.274
1000.81	0.270
1001.23	0.272
1001.65	0.271
1002.07	0.278
1002.49	0.270
1002.91	0.265
1003.33	0.263
1003.75	0.259
1004.17	0.257
1004.59	0.260
1005.01	0.267
1005.43	0.256
1005.85	0.262
1006.28	0.259
1006.70	0.257
1007.12	0.254
1007.54	0.260
1007.96	0.254
1008.38	0.259
1008.80	0.256
1009.22	0.252
1009.64	0.255
1010.06	0.246
1010.48	0.259
1010.90	0.252
1011.32	0.237
1011.74	0.247
1012.16	0.251
1012.58	0.245
1013.00	0.242
1013.42	0.234
1013.84	0.243
1014.26	0.239
1014.67	0.248
1015.09	0.242
1015.51	0.240
1015.93	0.240
1016.35	0.235
1016.77	0.245
1017.19	0.234
1017.61	0.229
1018.03	0.234
1018.45	0.230
1018.87	0.236
1019.29	0.229
1019.71	0.228
1020.13	0.235
1020.55	0.231
1020.97	0.229
1021.38	0.238
1021.80	0.218
1022.22	0.221
1022.64	0.227
1023.06	0.223
1023.48	0.221
1023.90	0.215
1024.32	0.211
1024.74	0.219
1025.15	0.215
1025.57	0.218
1025.99	0.210
1026.41	0.216
1026.83	0.209
1027.25	0.214
1027.67	0.215
1028.08	0.207
1028.50	0.221
1028.92	0.213
1029.34	0.208
1029.76	0.217
1030.18	0.218
1030.60	0.222
1031.01	0.203
1031.43	0.214
1031.85	0.224
1032.27	0.203
1032.69	0.208
1033.10	0.215
1033.52	0.193
1033.94	0.201
1034.36	0.195
1034.78	0.190
1035.19	0.202
1035.61	0.203
1036.03	0.208
1036.45	0.209
1036.87	0.201
1037.28	0.186
1037.70	0.193
1038.12	0.197
1038.54	0.184
1038.95	0.179
1039.37	0.195
1039.79	0.201
1040.21	0.196
1040.62	0.214
1041.04	0.189
1041.46	0.184
1041.88	0.176
1042.29	0.187
1042.71	0.200
1043.13	0.192
1043.55	0.176
1043.96	0.201
1044.38	0.195
1044.80	0.192
1045.21	0.201
1045.63	0.200
1046.05	0.183
1046.47	0.190
1046.88	0.198
1047.30	0.206
1047.72	0.177
1048.13	0.188
1048.55	0.176
1048.97	0.167
1049.38	0.175
1049.80	0.208
1050.22	0.202
1050.63	0.171
1051.05	0.191
1051.47	0.176
1051.88	0.183
1052.30	0.205
1052.72	0.186
1053.13	0.181
1053.55	0.217
1053.97	0.180
1054.38	0.202
1054.80	0.208
1055.21	0.178
1055.63	0.188
1056.05	0.187
1056.46	0.185
1056.88	0.184
1057.29	0.199
1057.71	0.210
1058.13	0.226
1058.54	0.205
1058.96	0.197
1059.37	0.217
1059.79	0.179
1060.21	0.211
1060.62	0.203
1061.04	0.169
1061.45	0.214
1061.87	0.227
1062.28	0.269
1062.70	0.205
1063.12	0.166
1063.53	0.185
1063.95	0.240
1064.36	0.216
1064.78	0.235
1065.19	0.299
1065.61	0.234
1066.02	0.191
1066.44	0.245
1066.85	0.204
1067.27	0.186
1067.68	0.140
1068.10	0.224
1068.51	0.251
1068.93	0.220
1069.35	0.353
1069.76	0.240
1070.17	0.284
1070.59	0.215
1071.00	0.354
1071.42	0.364
1071.83	0.329
1072.25	0.288
1072.66	0.300
1073.08	0.361
1073.49	0.330
1073.91	0.393
1074.32	0.297
1074.74	0.278
1075.15	0.328
1075.57	0.315
1075.98	0.506
1076.40	0.292
1076.81	0.518
1077.22	0.316
1077.64	0.322
1078.05	0.374
1078.47	0.507
1078.88	0.418
1079.30	0.593
1079.71	0.865
1080.12	-0.000
1080.54	-0.000
1080.95	0.708
1081.37	0.916
1081.78	0.732
1082.19	0.421
1082.61	0.604
1083.02	-0.000
1083.44	0.527
1083.85	0.800
1084.26	-0.000
1084.68	-0.000
1085.09	0.890
1085.50	-0.000
1085.92	-0.000
1086.33	-0.000
1086.74	1.558
1087.16	-0.000
1087.57	-0.000
1087.98	0.790
1088.40	0.526
1088.81	-0.000
1089.22	-0.000
1089.64	0.852
1090.05	-0.000
1090.46	-0.000
1090.88	-0.000
1091.29	0.959
1091.70	-0.000
1092.12	-0.000
1092.53	-0.000
1092.94	-0.000
1093.36	-0.000
1093.77	-0.000
1094.18	-0.000
1094.59	-0.000
1095.01	-0.000
1095.42	-0.000
1095.83	-0.000
1096.25	-0.000
1096.66	-0.000
1097.07	-0.000
1097.48	0.593
1097.90	-0.000
1098.31	-0.000
1098.72	-0.000
1099.13	-0.000
>>>>>End Processed Spectral Data<<<<<
