SpectraSuite Data File
++++++++++++++++++++++++++++++++++++
Date: Sun Apr 24 18:04:24 CEST 2016
User: spectrasuite
Dark Spectrum Present: Yes
Reference Spectrum Present: Yes
Number of Sampled Component Spectra: 1
Spectrometers: HR+C0708
Integration Time (usec): 1000 (HR+C0708)
Spectra Averaged: 10 (HR+C0708)
Boxcar Smoothing: 0 (HR+C0708)
Correct for Electrical Dark: No (HR+C0708)
Strobe/Lamp Enabled: No (HR+C0708)
Correct for Detector Non-linearity: No (HR+C0708)
Correct for Stray Light: No (HR+C0708)
Number of Pixels in Processed Spectrum: 2048
>>>>>Begin Processed Spectral Data<<<<<
188.76	-0.000
189.23	-0.000
189.70	-0.000
190.17	-0.000
190.64	-0.000
191.12	-0.000
191.59	-0.000
192.06	-0.000
192.53	-0.000
193.01	-0.000
193.48	-0.000
193.95	-0.000
194.42	-0.000
194.90	-0.000
195.37	-0.000
195.84	-0.000
196.31	-0.000
196.78	-0.000
197.26	-0.000
197.73	-0.000
198.20	-0.000
198.67	-0.000
199.14	-0.000
199.62	-0.000
200.09	-0.000
200.56	-0.000
201.03	1.712
201.50	-0.000
201.97	-0.000
202.45	-0.000
202.92	-0.000
203.39	-0.000
203.86	-0.000
204.33	-0.000
204.80	-0.000
205.28	1.066
205.75	-0.000
206.22	-0.000
206.69	-0.000
207.16	-0.000
207.63	1.306
208.11	1.359
208.58	-0.000
209.05	-0.000
209.52	-0.000
209.99	-0.000
210.46	-0.000
210.93	-0.000
211.41	-0.000
211.88	-0.000
212.35	-0.000
212.82	-0.000
213.29	1.066
213.76	-0.000
214.23	-0.000
214.70	-0.000
215.18	-0.000
215.65	1.898
216.12	-0.000
216.59	-0.000
217.06	-0.000
217.53	-0.000
218.00	-0.000
218.47	-0.000
218.94	-0.000
219.41	-0.000
219.89	-0.000
220.36	-0.000
220.83	1.505
221.30	-0.000
221.77	2.160
222.24	1.509
222.71	-0.000
223.18	-0.000
223.65	-0.000
224.12	-0.000
224.59	-0.000
225.06	-0.000
225.54	-0.000
226.01	1.523
226.48	-0.000
226.95	-0.000
227.42	1.854
227.89	-0.000
228.36	1.820
228.83	-0.000
229.30	-0.000
229.77	1.899
230.24	2.067
230.71	-0.000
231.18	3.186
231.65	2.074
232.12	2.660
232.59	2.055
233.06	-0.000
233.53	2.762
234.00	2.281
234.47	-0.000
234.94	-0.000
235.41	2.845
235.88	-0.000
236.35	-0.000
236.82	-0.000
237.29	2.886
237.76	3.307
238.23	-0.000
238.70	-0.000
239.17	2.439
239.64	-0.000
240.11	2.815
240.58	2.769
241.05	-0.000
241.52	2.968
241.99	-0.000
242.46	3.947
242.93	-0.000
243.40	-0.000
243.87	2.743
244.34	2.693
244.81	-0.000
245.28	-0.000
245.75	-0.000
246.22	-0.000
246.69	3.075
247.16	2.923
247.63	2.895
248.10	2.795
248.57	-0.000
249.04	-0.000
249.51	3.228
249.98	-0.000
250.45	3.236
250.92	3.075
251.39	-0.000
251.85	-0.000
252.32	-0.000
252.79	-0.000
253.26	3.375
253.73	-0.000
254.20	3.016
254.67	2.705
255.14	3.610
255.61	4.035
256.08	2.862
256.55	-0.000
257.02	2.697
257.49	3.033
257.95	2.757
258.42	2.505
258.89	2.612
259.36	2.586
259.83	2.500
260.30	2.873
260.77	2.620
261.24	2.388
261.71	2.632
262.17	2.383
262.64	2.364
263.11	2.397
263.58	2.475
264.05	2.341
264.52	2.322
264.99	2.270
265.46	2.300
265.92	2.325
266.39	2.185
266.86	2.264
267.33	2.244
267.80	2.163
268.27	2.186
268.74	2.136
269.20	2.212
269.67	2.142
270.14	2.067
270.61	2.082
271.08	2.068
271.55	2.058
272.01	2.055
272.48	2.040
272.95	2.015
273.42	1.986
273.89	1.952
274.36	1.945
274.82	1.938
275.29	1.939
275.76	1.923
276.23	1.896
276.70	1.878
277.16	1.876
277.63	1.854
278.10	1.823
278.57	1.847
279.04	1.848
279.50	1.820
279.97	1.821
280.44	1.768
280.91	1.753
281.38	1.754
281.84	1.757
282.31	1.769
282.78	1.779
283.25	1.724
283.72	1.708
284.18	1.709
284.65	1.713
285.12	1.677
285.59	1.680
286.05	1.692
286.52	1.669
286.99	1.656
287.46	1.661
287.92	1.633
288.39	1.636
288.86	1.626
289.33	1.621
289.79	1.610
290.26	1.613
290.73	1.576
291.20	1.586
291.66	1.587
292.13	1.565
292.60	1.549
293.07	1.537
293.53	1.515
294.00	1.538
294.47	1.526
294.93	1.513
295.40	1.521
295.87	1.493
296.34	1.501
296.80	1.463
297.27	1.458
297.74	1.460
298.20	1.462
298.67	1.433
299.14	1.440
299.60	1.436
300.07	1.414
300.54	1.408
301.01	1.392
301.47	1.384
301.94	1.380
302.41	1.370
302.87	1.364
303.34	1.362
303.81	1.348
304.27	1.360
304.74	1.333
305.21	1.333
305.67	1.327
306.14	1.316
306.61	1.313
307.07	1.308
307.54	1.294
308.01	1.296
308.47	1.286
308.94	1.281
309.40	1.269
309.87	1.257
310.34	1.254
310.80	1.252
311.27	1.243
311.74	1.245
312.20	1.244
312.67	1.228
313.13	1.213
313.60	1.220
314.07	1.202
314.53	1.209
315.00	1.198
315.47	1.203
315.93	1.190
316.40	1.174
316.86	1.178
317.33	1.173
317.80	1.162
318.26	1.174
318.73	1.167
319.19	1.148
319.66	1.145
320.13	1.146
320.59	1.139
321.06	1.136
321.52	1.133
321.99	1.129
322.45	1.126
322.92	1.108
323.39	1.110
323.85	1.109
324.32	1.106
324.78	1.111
325.25	1.100
325.71	1.086
326.18	1.083
326.64	1.085
327.11	1.077
327.58	1.074
328.04	1.067
328.51	1.066
328.97	1.065
329.44	1.056
329.90	1.055
330.37	1.045
330.83	1.039
331.30	1.044
331.76	1.030
332.23	1.024
332.69	1.030
333.16	1.022
333.62	1.023
334.09	1.014
334.56	1.004
335.02	1.000
335.49	0.995
335.95	0.986
336.42	0.984
336.88	0.987
337.35	0.979
337.81	0.980
338.28	0.967
338.74	0.973
339.20	0.966
339.67	0.954
340.13	0.956
340.60	0.948
341.06	0.940
341.53	0.941
341.99	0.941
342.46	0.926
342.92	0.928
343.39	0.914
343.85	0.916
344.32	0.911
344.78	0.905
345.25	0.907
345.71	0.901
346.17	0.894
346.64	0.889
347.10	0.884
347.57	0.873
348.03	0.866
348.50	0.859
348.96	0.859
349.43	0.852
349.89	0.838
350.35	0.835
350.82	0.831
351.28	0.826
351.75	0.818
352.21	0.809
352.67	0.798
353.14	0.794
353.60	0.796
354.07	0.782
354.53	0.772
355.00	0.766
355.46	0.765
355.92	0.747
356.39	0.744
356.85	0.736
357.31	0.734
357.78	0.724
358.24	0.714
358.71	0.707
359.17	0.699
359.63	0.702
360.10	0.691
360.56	0.694
361.03	0.687
361.49	0.677
361.95	0.677
362.42	0.668
362.88	0.663
363.34	0.662
363.81	0.657
364.27	0.653
364.73	0.648
365.20	0.646
365.66	0.647
366.12	0.641
366.59	0.632
367.05	0.633
367.51	0.629
367.98	0.628
368.44	0.627
368.90	0.626
369.37	0.620
369.83	0.615
370.29	0.618
370.76	0.617
371.22	0.613
371.68	0.606
372.15	0.603
372.61	0.598
373.07	0.602
373.54	0.603
374.00	0.597
374.46	0.596
374.92	0.596
375.39	0.593
375.85	0.590
376.31	0.588
376.78	0.589
377.24	0.589
377.70	0.586
378.16	0.579
378.63	0.581
379.09	0.576
379.55	0.574
380.01	0.575
380.48	0.573
380.94	0.573
381.40	0.572
381.87	0.563
382.33	0.567
382.79	0.564
383.25	0.562
383.72	0.564
384.18	0.561
384.64	0.554
385.10	0.551
385.56	0.553
386.03	0.550
386.49	0.549
386.95	0.544
387.41	0.548
387.88	0.546
388.34	0.541
388.80	0.538
389.26	0.539
389.72	0.542
390.19	0.537
390.65	0.536
391.11	0.533
391.57	0.533
392.04	0.529
392.50	0.528
392.96	0.527
393.42	0.524
393.88	0.529
394.34	0.521
394.81	0.519
395.27	0.521
395.73	0.521
396.19	0.517
396.65	0.516
397.12	0.515
397.58	0.512
398.04	0.512
398.50	0.510
398.96	0.509
399.42	0.511
399.89	0.505
400.35	0.506
400.81	0.502
401.27	0.498
401.73	0.501
402.19	0.497
402.65	0.496
403.12	0.496
403.58	0.490
404.04	0.492
404.50	0.489
404.96	0.489
405.42	0.489
405.88	0.488
406.34	0.489
406.81	0.486
407.27	0.484
407.73	0.482
408.19	0.481
408.65	0.478
409.11	0.478
409.57	0.481
410.03	0.477
410.49	0.476
410.96	0.475
411.42	0.474
411.88	0.472
412.34	0.468
412.80	0.470
413.26	0.465
413.72	0.463
414.18	0.465
414.64	0.463
415.10	0.461
415.56	0.465
416.02	0.463
416.48	0.460
416.95	0.457
417.41	0.459
417.87	0.453
418.33	0.454
418.79	0.450
419.25	0.453
419.71	0.452
420.17	0.447
420.63	0.448
421.09	0.445
421.55	0.441
422.01	0.447
422.47	0.445
422.93	0.442
423.39	0.444
423.85	0.444
424.31	0.438
424.77	0.437
425.23	0.442
425.69	0.440
426.15	0.437
426.61	0.434
427.07	0.430
427.53	0.431
427.99	0.430
428.45	0.433
428.91	0.428
429.37	0.428
429.83	0.429
430.29	0.425
430.75	0.429
431.21	0.426
431.67	0.428
432.13	0.427
432.59	0.420
433.05	0.419
433.51	0.418
433.97	0.417
434.43	0.416
434.89	0.422
435.35	0.417
435.81	0.415
436.27	0.412
436.73	0.414
437.19	0.414
437.65	0.415
438.11	0.405
438.57	0.410
439.03	0.410
439.48	0.404
439.94	0.405
440.40	0.407
440.86	0.404
441.32	0.405
441.78	0.406
442.24	0.403
442.70	0.398
443.16	0.399
443.62	0.399
444.08	0.394
444.54	0.400
444.99	0.396
445.45	0.393
445.91	0.393
446.37	0.392
446.83	0.392
447.29	0.391
447.75	0.388
448.21	0.394
448.67	0.385
449.12	0.385
449.58	0.386
450.04	0.384
450.50	0.384
450.96	0.387
451.42	0.383
451.88	0.382
452.34	0.385
452.79	0.377
453.25	0.380
453.71	0.380
454.17	0.375
454.63	0.380
455.09	0.378
455.55	0.376
456.00	0.371
456.46	0.374
456.92	0.374
457.38	0.375
457.84	0.370
458.30	0.365
458.75	0.372
459.21	0.368
459.67	0.369
460.13	0.367
460.59	0.369
461.04	0.367
461.50	0.366
461.96	0.362
462.42	0.361
462.88	0.361
463.33	0.362
463.79	0.360
464.25	0.361
464.71	0.359
465.17	0.359
465.62	0.359
466.08	0.360
466.54	0.358
467.00	0.358
467.46	0.356
467.91	0.354
468.37	0.353
468.83	0.353
469.29	0.352
469.74	0.353
470.20	0.350
470.66	0.351
471.12	0.346
471.57	0.351
472.03	0.350
472.49	0.351
472.95	0.350
473.40	0.347
473.86	0.344
474.32	0.343
474.78	0.345
475.23	0.344
475.69	0.345
476.15	0.342
476.60	0.346
477.06	0.342
477.52	0.342
477.98	0.340
478.43	0.338
478.89	0.337
479.35	0.338
479.80	0.339
480.26	0.337
480.72	0.339
481.18	0.334
481.63	0.335
482.09	0.333
482.55	0.334
483.00	0.332
483.46	0.329
483.92	0.330
484.37	0.331
484.83	0.327
485.29	0.328
485.74	0.327
486.20	0.329
486.66	0.326
487.11	0.328
487.57	0.327
488.03	0.324
488.48	0.324
488.94	0.323
489.40	0.325
489.85	0.324
490.31	0.325
490.77	0.321
491.22	0.322
491.68	0.317
492.13	0.319
492.59	0.319
493.05	0.320
493.50	0.318
493.96	0.317
494.42	0.316
494.87	0.314
495.33	0.313
495.78	0.314
496.24	0.314
496.70	0.313
497.15	0.312
497.61	0.314
498.06	0.312
498.52	0.311
498.98	0.312
499.43	0.311
499.89	0.310
500.34	0.310
500.80	0.308
501.25	0.310
501.71	0.305
502.17	0.308
502.62	0.308
503.08	0.306
503.53	0.304
503.99	0.305
504.44	0.304
504.90	0.303
505.36	0.301
505.81	0.305
506.27	0.301
506.72	0.304
507.18	0.304
507.63	0.299
508.09	0.302
508.54	0.298
509.00	0.299
509.45	0.299
509.91	0.296
510.36	0.297
510.82	0.297
511.27	0.296
511.73	0.298
512.19	0.294
512.64	0.293
513.10	0.294
513.55	0.295
514.01	0.291
514.46	0.292
514.92	0.291
515.37	0.293
515.83	0.290
516.28	0.290
516.73	0.289
517.19	0.289
517.64	0.285
518.10	0.288
518.55	0.287
519.01	0.285
519.46	0.287
519.92	0.287
520.37	0.283
520.83	0.286
521.28	0.284
521.74	0.286
522.19	0.284
522.65	0.285
523.10	0.284
523.55	0.284
524.01	0.285
524.46	0.283
524.92	0.280
525.37	0.280
525.83	0.280
526.28	0.279
526.73	0.279
527.19	0.281
527.64	0.281
528.10	0.280
528.55	0.277
529.01	0.279
529.46	0.279
529.91	0.277
530.37	0.276
530.82	0.276
531.28	0.277
531.73	0.274
532.18	0.275
532.64	0.273
533.09	0.274
533.54	0.273
534.00	0.272
534.45	0.276
534.91	0.276
535.36	0.273
535.81	0.273
536.27	0.269
536.72	0.271
537.17	0.271
537.63	0.270
538.08	0.269
538.54	0.271
538.99	0.269
539.44	0.269
539.90	0.267
540.35	0.269
540.80	0.269
541.26	0.266
541.71	0.267
542.16	0.266
542.62	0.267
543.07	0.266
543.52	0.267
543.98	0.268
544.43	0.264
544.88	0.264
545.34	0.267
545.79	0.266
546.24	0.264
546.69	0.266
547.15	0.264
547.60	0.263
548.05	0.265
548.51	0.261
548.96	0.264
549.41	0.263
549.86	0.262
550.32	0.262
550.77	0.262
551.22	0.260
551.68	0.260
552.13	0.261
552.58	0.261
553.03	0.262
553.49	0.261
553.94	0.260
554.39	0.260
554.84	0.260
555.30	0.260
555.75	0.259
556.20	0.259
556.65	0.259
557.11	0.258
557.56	0.256
558.01	0.260
558.46	0.261
558.92	0.257
559.37	0.258
559.82	0.258
560.27	0.255
560.72	0.257
561.18	0.256
561.63	0.255
562.08	0.254
562.53	0.257
562.99	0.258
563.44	0.255
563.89	0.254
564.34	0.256
564.79	0.256
565.25	0.256
565.70	0.255
566.15	0.254
566.60	0.253
567.05	0.254
567.50	0.255
567.96	0.253
568.41	0.254
568.86	0.253
569.31	0.251
569.76	0.253
570.21	0.251
570.67	0.254
571.12	0.253
571.57	0.250
572.02	0.249
572.47	0.250
572.92	0.252
573.37	0.250
573.83	0.249
574.28	0.252
574.73	0.252
575.18	0.250
575.63	0.251
576.08	0.249
576.53	0.249
576.98	0.251
577.44	0.250
577.89	0.250
578.34	0.250
578.79	0.247
579.24	0.249
579.69	0.250
580.14	0.246
580.59	0.247
581.04	0.247
581.49	0.244
581.95	0.248
582.40	0.249
582.85	0.248
583.30	0.249
583.75	0.247
584.20	0.249
584.65	0.249
585.10	0.247
585.55	0.249
586.00	0.250
586.45	0.247
586.90	0.249
587.35	0.250
587.80	0.249
588.25	0.248
588.71	0.249
589.16	0.248
589.61	0.249
590.06	0.248
590.51	0.251
590.96	0.250
591.41	0.249
591.86	0.249
592.31	0.250
592.76	0.250
593.21	0.250
593.66	0.252
594.11	0.250
594.56	0.251
595.01	0.250
595.46	0.251
595.91	0.250
596.36	0.251
596.81	0.251
597.26	0.252
597.71	0.252
598.16	0.251
598.61	0.251
599.06	0.252
599.51	0.252
599.96	0.251
600.41	0.254
600.86	0.251
601.31	0.252
601.76	0.253
602.21	0.252
602.65	0.254
603.10	0.254
603.55	0.252
604.00	0.253
604.45	0.251
604.90	0.253
605.35	0.252
605.80	0.254
606.25	0.254
606.70	0.255
607.15	0.253
607.60	0.253
608.05	0.252
608.50	0.253
608.95	0.251
609.39	0.256
609.84	0.254
610.29	0.253
610.74	0.254
611.19	0.252
611.64	0.254
612.09	0.253
612.54	0.254
612.99	0.254
613.44	0.253
613.88	0.254
614.33	0.256
614.78	0.251
615.23	0.252
615.68	0.254
616.13	0.254
616.58	0.253
617.03	0.252
617.47	0.255
617.92	0.253
618.37	0.252
618.82	0.253
619.27	0.253
619.72	0.250
620.17	0.250
620.61	0.251
621.06	0.251
621.51	0.253
621.96	0.250
622.41	0.252
622.86	0.251
623.30	0.251
623.75	0.253
624.20	0.251
624.65	0.250
625.10	0.251
625.54	0.250
625.99	0.251
626.44	0.252
626.89	0.252
627.34	0.252
627.78	0.252
628.23	0.249
628.68	0.251
629.13	0.251
629.58	0.252
630.02	0.252
630.47	0.252
630.92	0.251
631.37	0.252
631.81	0.250
632.26	0.251
632.71	0.255
633.16	0.251
633.61	0.253
634.05	0.251
634.50	0.252
634.95	0.253
635.40	0.254
635.84	0.255
636.29	0.254
636.74	0.254
637.18	0.253
637.63	0.256
638.08	0.254
638.53	0.253
638.97	0.254
639.42	0.258
639.87	0.258
640.32	0.254
640.76	0.257
641.21	0.257
641.66	0.259
642.10	0.257
642.55	0.256
643.00	0.257
643.44	0.259
643.89	0.260
644.34	0.258
644.79	0.258
645.23	0.259
645.68	0.259
646.13	0.260
646.57	0.261
647.02	0.259
647.47	0.263
647.91	0.263
648.36	0.262
648.81	0.262
649.25	0.262
649.70	0.262
650.15	0.263
650.59	0.262
651.04	0.262
651.48	0.266
651.93	0.265
652.38	0.260
652.82	0.264
653.27	0.262
653.72	0.265
654.16	0.263
654.61	0.264
655.06	0.264
655.50	0.261
655.95	0.259
656.39	0.256
656.84	0.259
657.29	0.264
657.73	0.263
658.18	0.262
658.62	0.263
659.07	0.262
659.52	0.263
659.96	0.262
660.41	0.262
660.85	0.260
661.30	0.262
661.74	0.262
662.19	0.260
662.64	0.261
663.08	0.256
663.53	0.257
663.97	0.256
664.42	0.256
664.86	0.259
665.31	0.254
665.75	0.253
666.20	0.257
666.65	0.253
667.09	0.253
667.54	0.254
667.98	0.250
668.43	0.251
668.87	0.249
669.32	0.248
669.76	0.249
670.21	0.247
670.65	0.245
671.10	0.246
671.54	0.242
671.99	0.241
672.43	0.241
672.88	0.237
673.32	0.237
673.77	0.235
674.21	0.235
674.66	0.230
675.10	0.230
675.55	0.226
675.99	0.228
676.44	0.225
676.88	0.225
677.33	0.222
677.77	0.220
678.22	0.220
678.66	0.218
679.11	0.215
679.55	0.216
679.99	0.212
680.44	0.211
680.88	0.207
681.33	0.207
681.77	0.206
682.22	0.205
682.66	0.203
683.11	0.201
683.55	0.199
683.99	0.197
684.44	0.195
684.88	0.193
685.33	0.194
685.77	0.192
686.21	0.190
686.66	0.189
687.10	0.187
687.55	0.185
687.99	0.187
688.44	0.186
688.88	0.183
689.32	0.182
689.77	0.179
690.21	0.180
690.65	0.178
691.10	0.179
691.54	0.176
691.99	0.177
692.43	0.173
692.87	0.172
693.32	0.174
693.76	0.173
694.20	0.173
694.65	0.171
695.09	0.169
695.53	0.168
695.98	0.167
696.42	0.168
696.86	0.168
697.31	0.164
697.75	0.166
698.19	0.164
698.64	0.164
699.08	0.164
699.52	0.161
699.97	0.162
700.41	0.163
700.85	0.162
701.30	0.158
701.74	0.161
702.18	0.161
702.63	0.161
703.07	0.161
703.51	0.160
703.96	0.159
704.40	0.158
704.84	0.160
705.28	0.158
705.73	0.157
706.17	0.160
706.61	0.156
707.06	0.156
707.50	0.156
707.94	0.159
708.38	0.154
708.83	0.156
709.27	0.157
709.71	0.154
710.15	0.157
710.60	0.155
711.04	0.151
711.48	0.158
711.92	0.155
712.37	0.153
712.81	0.154
713.25	0.152
713.69	0.152
714.13	0.154
714.58	0.154
715.02	0.153
715.46	0.151
715.90	0.150
716.35	0.152
716.79	0.153
717.23	0.154
717.67	0.152
718.11	0.153
718.56	0.151
719.00	0.154
719.44	0.150
719.88	0.150
720.32	0.149
720.76	0.152
721.21	0.150
721.65	0.152
722.09	0.150
722.53	0.152
722.97	0.151
723.41	0.148
723.86	0.153
724.30	0.150
724.74	0.151
725.18	0.150
725.62	0.148
726.06	0.152
726.50	0.149
726.95	0.148
727.39	0.150
727.83	0.149
728.27	0.151
728.71	0.152
729.15	0.151
729.59	0.150
730.03	0.149
730.48	0.150
730.92	0.148
731.36	0.149
731.80	0.151
732.24	0.149
732.68	0.148
733.12	0.147
733.56	0.149
734.00	0.149
734.44	0.149
734.89	0.149
735.33	0.150
735.77	0.151
736.21	0.152
736.65	0.147
737.09	0.151
737.53	0.149
737.97	0.150
738.41	0.150
738.85	0.152
739.29	0.151
739.73	0.149
740.17	0.150
740.61	0.149
741.05	0.149
741.49	0.149
741.93	0.147
742.37	0.145
742.81	0.148
743.26	0.150
743.70	0.145
744.14	0.148
744.58	0.149
745.02	0.147
745.46	0.149
745.90	0.145
746.34	0.148
746.78	0.147
747.22	0.147
747.66	0.146
748.10	0.147
748.54	0.147
748.98	0.144
749.42	0.146
749.86	0.147
750.29	0.149
750.73	0.145
751.17	0.144
751.61	0.143
752.05	0.147
752.49	0.142
752.93	0.144
753.37	0.144
753.81	0.144
754.25	0.143
754.69	0.141
755.13	0.140
755.57	0.145
756.01	0.145
756.45	0.145
756.89	0.145
757.33	0.143
757.77	0.145
758.21	0.143
758.64	0.139
759.08	0.137
759.52	0.144
759.96	0.145
760.40	0.141
760.84	0.141
761.28	0.143
761.72	0.143
762.16	0.142
762.60	0.141
763.03	0.141
763.47	0.139
763.91	0.143
764.35	0.140
764.79	0.138
765.23	0.140
765.67	0.139
766.11	0.137
766.54	0.137
766.98	0.141
767.42	0.143
767.86	0.139
768.30	0.139
768.74	0.141
769.17	0.141
769.61	0.139
770.05	0.138
770.49	0.139
770.93	0.141
771.37	0.138
771.80	0.138
772.24	0.136
772.68	0.137
773.12	0.135
773.56	0.140
774.00	0.136
774.43	0.135
774.87	0.136
775.31	0.137
775.75	0.137
776.19	0.137
776.62	0.134
777.06	0.139
777.50	0.137
777.94	0.135
778.37	0.136
778.81	0.133
779.25	0.136
779.69	0.138
780.13	0.136
780.56	0.136
781.00	0.136
781.44	0.135
781.88	0.134
782.31	0.135
782.75	0.134
783.19	0.138
783.63	0.135
784.06	0.133
784.50	0.135
784.94	0.135
785.37	0.136
785.81	0.137
786.25	0.136
786.69	0.130
787.12	0.135
787.56	0.133
788.00	0.136
788.43	0.134
788.87	0.135
789.31	0.133
789.75	0.134
790.18	0.133
790.62	0.134
791.06	0.132
791.49	0.134
791.93	0.135
792.37	0.136
792.80	0.130
793.24	0.130
793.68	0.132
794.11	0.130
794.55	0.135
794.99	0.135
795.42	0.134
795.86	0.134
796.30	0.131
796.73	0.133
797.17	0.133
797.61	0.132
798.04	0.130
798.48	0.131
798.91	0.131
799.35	0.131
799.79	0.134
800.22	0.132
800.66	0.131
801.10	0.133
801.53	0.135
801.97	0.134
802.40	0.136
802.84	0.132
803.28	0.128
803.71	0.133
804.15	0.129
804.58	0.131
805.02	0.133
805.46	0.130
805.89	0.130
806.33	0.130
806.76	0.129
807.20	0.130
807.63	0.134
808.07	0.132
808.51	0.129
808.94	0.127
809.38	0.131
809.81	0.129
810.25	0.133
810.68	0.132
811.12	0.128
811.55	0.132
811.99	0.132
812.42	0.131
812.86	0.130
813.29	0.126
813.73	0.131
814.17	0.128
814.60	0.130
815.04	0.130
815.47	0.128
815.91	0.127
816.34	0.130
816.78	0.126
817.21	0.133
817.65	0.130
818.08	0.126
818.52	0.129
818.95	0.129
819.39	0.129
819.82	0.127
820.25	0.126
820.69	0.132
821.12	0.131
821.56	0.130
821.99	0.127
822.43	0.125
822.86	0.131
823.30	0.130
823.73	0.128
824.17	0.124
824.60	0.124
825.04	0.127
825.47	0.128
825.90	0.128
826.34	0.129
826.77	0.129
827.21	0.131
827.64	0.131
828.08	0.128
828.51	0.125
828.94	0.128
829.38	0.126
829.81	0.131
830.25	0.131
830.68	0.127
831.11	0.131
831.55	0.133
831.98	0.133
832.42	0.133
832.85	0.135
833.28	0.135
833.72	0.135
834.15	0.129
834.58	0.129
835.02	0.135
835.45	0.133
835.88	0.129
836.32	0.138
836.75	0.131
837.19	0.133
837.62	0.132
838.05	0.131
838.49	0.134
838.92	0.135
839.35	0.135
839.79	0.132
840.22	0.133
840.65	0.133
841.09	0.135
841.52	0.126
841.95	0.131
842.39	0.133
842.82	0.129
843.25	0.133
843.68	0.135
844.12	0.135
844.55	0.130
844.98	0.133
845.42	0.131
845.85	0.132
846.28	0.132
846.71	0.128
847.15	0.136
847.58	0.137
848.01	0.137
848.45	0.135
848.88	0.137
849.31	0.134
849.74	0.136
850.18	0.135
850.61	0.130
851.04	0.130
851.47	0.136
851.91	0.132
852.34	0.132
852.77	0.135
853.20	0.128
853.64	0.129
854.07	0.136
854.50	0.132
854.93	0.134
855.36	0.133
855.80	0.133
856.23	0.133
856.66	0.136
857.09	0.132
857.52	0.133
857.96	0.130
858.39	0.134
858.82	0.128
859.25	0.136
859.68	0.137
860.12	0.131
860.55	0.130
860.98	0.130
861.41	0.127
861.84	0.131
862.27	0.128
862.71	0.130
863.14	0.132
863.57	0.133
864.00	0.134
864.43	0.132
864.86	0.133
865.30	0.138
865.73	0.132
866.16	0.137
866.59	0.137
867.02	0.131
867.45	0.137
867.88	0.129
868.31	0.138
868.75	0.134
869.18	0.136
869.61	0.137
870.04	0.136
870.47	0.138
870.90	0.136
871.33	0.133
871.76	0.136
872.19	0.142
872.62	0.133
873.06	0.131
873.49	0.140
873.92	0.135
874.35	0.139
874.78	0.137
875.21	0.135
875.64	0.130
876.07	0.135
876.50	0.139
876.93	0.141
877.36	0.130
877.79	0.137
878.22	0.141
878.65	0.133
879.08	0.136
879.51	0.140
879.94	0.132
880.37	0.141
880.80	0.136
881.23	0.136
881.67	0.138
882.10	0.137
882.53	0.134
882.96	0.135
883.39	0.135
883.82	0.136
884.25	0.136
884.68	0.137
885.11	0.132
885.54	0.138
885.97	0.135
886.39	0.136
886.82	0.130
887.25	0.133
887.68	0.139
888.11	0.134
888.54	0.134
888.97	0.141
889.40	0.140
889.83	0.135
890.26	0.138
890.69	0.138
891.12	0.139
891.55	0.134
891.98	0.137
892.41	0.133
892.84	0.135
893.27	0.138
893.70	0.135
894.13	0.134
894.56	0.139
894.98	0.144
895.41	0.142
895.84	0.137
896.27	0.139
896.70	0.140
897.13	0.142
897.56	0.135
897.99	0.141
898.42	0.136
898.85	0.140
899.27	0.138
899.70	0.140
900.13	0.136
900.56	0.137
900.99	0.135
901.42	0.139
901.85	0.141
902.28	0.143
902.70	0.138
903.13	0.141
903.56	0.141
903.99	0.138
904.42	0.144
904.85	0.138
905.27	0.139
905.70	0.140
906.13	0.141
906.56	0.136
906.99	0.139
907.42	0.137
907.84	0.135
908.27	0.137
908.70	0.139
909.13	0.142
909.56	0.136
909.98	0.137
910.41	0.135
910.84	0.136
911.27	0.139
911.70	0.137
912.12	0.135
912.55	0.137
912.98	0.139
913.41	0.139
913.84	0.135
914.26	0.137
914.69	0.138
915.12	0.139
915.55	0.136
915.97	0.143
916.40	0.140
916.83	0.135
917.26	0.140
917.68	0.136
918.11	0.138
918.54	0.133
918.97	0.136
919.39	0.138
919.82	0.138
920.25	0.136
920.67	0.141
921.10	0.143
921.53	0.141
921.96	0.141
922.38	0.139
922.81	0.138
923.24	0.143
923.66	0.137
924.09	0.145
924.52	0.142
924.94	0.143
925.37	0.146
925.80	0.144
926.22	0.142
926.65	0.145
927.08	0.144
927.50	0.145
927.93	0.148
928.36	0.141
928.78	0.145
929.21	0.145
929.64	0.145
930.06	0.149
930.49	0.151
930.92	0.155
931.34	0.154
931.77	0.157
932.20	0.156
932.62	0.154
933.05	0.152
933.47	0.160
933.90	0.154
934.33	0.155
934.75	0.155
935.18	0.160
935.61	0.159
936.03	0.158
936.46	0.163
936.88	0.163
937.31	0.166
937.73	0.168
938.16	0.165
938.59	0.174
939.01	0.172
939.44	0.178
939.86	0.183
940.29	0.174
940.71	0.180
941.14	0.182
941.57	0.180
941.99	0.187
942.42	0.190
942.84	0.197
943.27	0.197
943.69	0.189
944.12	0.193
944.54	0.208
944.97	0.196
945.39	0.197
945.82	0.203
946.24	0.211
946.67	0.213
947.09	0.201
947.52	0.207
947.94	0.215
948.37	0.212
948.79	0.215
949.22	0.217
949.64	0.210
950.07	0.226
950.49	0.217
950.92	0.222
951.34	0.227
951.77	0.230
952.19	0.233
952.62	0.239
953.04	0.233
953.47	0.242
953.89	0.244
954.32	0.240
954.74	0.241
955.17	0.248
955.59	0.253
956.01	0.257
956.44	0.256
956.86	0.261
957.29	0.269
957.71	0.268
958.14	0.268
958.56	0.270
958.98	0.273
959.41	0.283
959.83	0.274
960.26	0.274
960.68	0.283
961.10	0.279
961.53	0.284
961.95	0.286
962.38	0.282
962.80	0.281
963.22	0.288
963.65	0.286
964.07	0.290
964.50	0.287
964.92	0.286
965.34	0.288
965.77	0.285
966.19	0.292
966.61	0.292
967.04	0.296
967.46	0.291
967.88	0.300
968.31	0.291
968.73	0.289
969.15	0.291
969.58	0.292
970.00	0.296
970.42	0.290
970.85	0.293
971.27	0.295
971.69	0.294
972.12	0.300
972.54	0.302
972.96	0.297
973.39	0.302
973.81	0.303
974.23	0.298
974.65	0.300
975.08	0.305
975.50	0.299
975.92	0.301
976.35	0.294
976.77	0.297
977.19	0.297
977.61	0.293
978.04	0.301
978.46	0.303
978.88	0.295
979.30	0.300
979.73	0.294
980.15	0.299
980.57	0.303
980.99	0.298
981.42	0.299
981.84	0.297
982.26	0.293
982.68	0.300
983.11	0.299
983.53	0.294
983.95	0.300
984.37	0.294
984.79	0.294
985.22	0.295
985.64	0.296
986.06	0.296
986.48	0.295
986.90	0.288
987.33	0.291
987.75	0.292
988.17	0.290
988.59	0.287
989.01	0.281
989.43	0.281
989.86	0.291
990.28	0.292
990.70	0.290
991.12	0.295
991.54	0.285
991.96	0.290
992.39	0.286
992.81	0.278
993.23	0.283
993.65	0.275
994.07	0.279
994.49	0.284
994.91	0.286
995.34	0.273
995.76	0.287
996.18	0.276
996.60	0.278
997.02	0.282
997.44	0.276
997.86	0.279
998.28	0.274
998.70	0.278
999.12	0.276
999.55	0.277
999.97	0.275
1000.39	0.273
1000.81	0.270
1001.23	0.270
1001.65	0.271
1002.07	0.269
1002.49	0.274
1002.91	0.268
1003.33	0.262
1003.75	0.267
1004.17	0.269
1004.59	0.261
1005.01	0.263
1005.43	0.264
1005.85	0.259
1006.28	0.263
1006.70	0.255
1007.12	0.255
1007.54	0.258
1007.96	0.254
1008.38	0.256
1008.80	0.259
1009.22	0.248
1009.64	0.252
1010.06	0.256
1010.48	0.251
1010.90	0.256
1011.32	0.245
1011.74	0.249
1012.16	0.253
1012.58	0.239
1013.00	0.243
1013.42	0.242
1013.84	0.247
1014.26	0.249
1014.67	0.243
1015.09	0.239
1015.51	0.246
1015.93	0.240
1016.35	0.236
1016.77	0.243
1017.19	0.236
1017.61	0.234
1018.03	0.244
1018.45	0.229
1018.87	0.248
1019.29	0.237
1019.71	0.233
1020.13	0.233
1020.55	0.234
1020.97	0.220
1021.38	0.231
1021.80	0.216
1022.22	0.236
1022.64	0.215
1023.06	0.216
1023.48	0.232
1023.90	0.215
1024.32	0.208
1024.74	0.224
1025.15	0.220
1025.57	0.213
1025.99	0.216
1026.41	0.226
1026.83	0.224
1027.25	0.217
1027.67	0.222
1028.08	0.218
1028.50	0.226
1028.92	0.208
1029.34	0.213
1029.76	0.224
1030.18	0.207
1030.60	0.220
1031.01	0.209
1031.43	0.214
1031.85	0.224
1032.27	0.210
1032.69	0.218
1033.10	0.232
1033.52	0.205
1033.94	0.201
1034.36	0.202
1034.78	0.210
1035.19	0.214
1035.61	0.203
1036.03	0.203
1036.45	0.209
1036.87	0.202
1037.28	0.195
1037.70	0.191
1038.12	0.186
1038.54	0.193
1038.95	0.184
1039.37	0.194
1039.79	0.216
1040.21	0.204
1040.62	0.206
1041.04	0.210
1041.46	0.192
1041.88	0.192
1042.29	0.194
1042.71	0.203
1043.13	0.215
1043.55	0.196
1043.96	0.198
1044.38	0.198
1044.80	0.214
1045.21	0.198
1045.63	0.176
1046.05	0.178
1046.47	0.212
1046.88	0.187
1047.30	0.188
1047.72	0.196
1048.13	0.208
1048.55	0.190
1048.97	0.206
1049.38	0.217
1049.80	0.190
1050.22	0.215
1050.63	0.180
1051.05	0.204
1051.47	0.191
1051.88	0.171
1052.30	0.195
1052.72	0.200
1053.13	0.177
1053.55	0.198
1053.97	0.189
1054.38	0.201
1054.80	0.244
1055.21	0.196
1055.63	0.199
1056.05	0.195
1056.46	0.220
1056.88	0.227
1057.29	0.208
1057.71	0.192
1058.13	0.232
1058.54	0.213
1058.96	0.197
1059.37	0.211
1059.79	0.199
1060.21	0.223
1060.62	0.230
1061.04	0.208
1061.45	0.273
1061.87	0.208
1062.28	0.205
1062.70	0.239
1063.12	0.206
1063.53	0.183
1063.95	0.247
1064.36	0.207
1064.78	0.273
1065.19	0.311
1065.61	0.301
1066.02	0.282
1066.44	0.267
1066.85	0.222
1067.27	0.288
1067.68	0.224
1068.10	0.231
1068.51	0.276
1068.93	0.327
1069.35	0.445
1069.76	0.328
1070.17	0.328
1070.59	0.345
1071.00	0.358
1071.42	0.284
1071.83	0.434
1072.25	0.491
1072.66	0.355
1073.08	0.511
1073.49	0.453
1073.91	0.415
1074.32	0.396
1074.74	0.364
1075.15	0.472
1075.57	0.619
1075.98	0.474
1076.40	0.503
1076.81	0.598
1077.22	0.377
1077.64	0.437
1078.05	0.625
1078.47	0.776
1078.88	1.170
1079.30	1.287
1079.71	1.979
1080.12	-0.000
1080.54	0.973
1080.95	0.818
1081.37	-0.000
1081.78	0.442
1082.19	1.140
1082.61	-0.000
1083.02	-0.000
1083.44	-0.000
1083.85	-0.000
1084.26	-0.000
1084.68	-0.000
1085.09	0.777
1085.50	-0.000
1085.92	-0.000
1086.33	-0.000
1086.74	-0.000
1087.16	-0.000
1087.57	-0.000
1087.98	-0.000
1088.40	1.449
1088.81	-0.000
1089.22	-0.000
1089.64	1.313
1090.05	-0.000
1090.46	-0.000
1090.88	-0.000
1091.29	-0.000
1091.70	-0.000
1092.12	-0.000
1092.53	-0.000
1092.94	-0.000
1093.36	-0.000
1093.77	-0.000
1094.18	2.336
1094.59	-0.000
1095.01	-0.000
1095.42	-0.000
1095.83	-0.000
1096.25	-0.000
1096.66	-0.000
1097.07	-0.000
1097.48	-0.000
1097.90	-0.000
1098.31	-0.000
1098.72	-0.000
1099.13	-0.000
>>>>>End Processed Spectral Data<<<<<
