SpectraSuite Data File
++++++++++++++++++++++++++++++++++++
Date: Sun Apr 24 14:57:31 CEST 2016
User: spectrasuite
Dark Spectrum Present: Yes
Reference Spectrum Present: Yes
Number of Sampled Component Spectra: 1
Spectrometers: HR+C0708
Integration Time (usec): 1000 (HR+C0708)
Spectra Averaged: 10 (HR+C0708)
Boxcar Smoothing: 0 (HR+C0708)
Correct for Electrical Dark: No (HR+C0708)
Strobe/Lamp Enabled: No (HR+C0708)
Correct for Detector Non-linearity: No (HR+C0708)
Correct for Stray Light: No (HR+C0708)
Number of Pixels in Processed Spectrum: 2048
>>>>>Begin Processed Spectral Data<<<<<
188.76	-0.000
189.23	-0.000
189.70	-0.000
190.17	-0.000
190.64	-0.000
191.12	-0.000
191.59	-0.000
192.06	-0.000
192.53	-0.000
193.01	-0.000
193.48	-0.000
193.95	-0.000
194.42	-0.000
194.90	-0.000
195.37	-0.000
195.84	-0.000
196.31	-0.000
196.78	-0.000
197.26	-0.000
197.73	-0.000
198.20	-0.000
198.67	-0.000
199.14	-0.000
199.62	-0.000
200.09	-0.000
200.56	-0.000
201.03	-0.000
201.50	1.021
201.97	-0.000
202.45	1.657
202.92	1.066
203.39	-0.000
203.86	-0.000
204.33	1.035
204.80	-0.000
205.28	-0.000
205.75	-0.000
206.22	-0.000
206.69	0.964
207.16	-0.000
207.63	0.847
208.11	1.553
208.58	-0.000
209.05	-0.000
209.52	-0.000
209.99	-0.000
210.46	0.950
210.93	-0.000
211.41	2.419
211.88	-0.000
212.35	-0.000
212.82	-0.000
213.29	1.640
213.76	-0.000
214.23	1.141
214.70	0.918
215.18	-0.000
215.65	-0.000
216.12	0.914
216.59	-0.000
217.06	-0.000
217.53	1.836
218.00	-0.000
218.47	1.153
218.94	-0.000
219.41	-0.000
219.89	-0.000
220.36	-0.000
220.83	-0.000
221.30	-0.000
221.77	-0.000
222.24	-0.000
222.71	-0.000
223.18	-0.000
223.65	2.152
224.12	-0.000
224.59	-0.000
225.06	-0.000
225.54	-0.000
226.01	1.782
226.48	1.504
226.95	1.648
227.42	1.997
227.89	-0.000
228.36	1.616
228.83	-0.000
229.30	-0.000
229.77	-0.000
230.24	1.939
230.71	-0.000
231.18	-0.000
231.65	2.271
232.12	-0.000
232.59	-0.000
233.06	2.252
233.53	3.063
234.00	2.197
234.47	-0.000
234.94	-0.000
235.41	2.432
235.88	-0.000
236.35	-0.000
236.82	2.255
237.29	-0.000
237.76	-0.000
238.23	-0.000
238.70	2.627
239.17	3.154
239.64	3.274
240.11	-0.000
240.58	3.964
241.05	-0.000
241.52	2.783
241.99	3.820
242.46	3.017
242.93	-0.000
243.40	3.014
243.87	3.069
244.34	2.548
244.81	2.912
245.28	-0.000
245.75	3.293
246.22	-0.000
246.69	2.953
247.16	2.916
247.63	3.511
248.10	3.693
248.57	-0.000
249.04	-0.000
249.51	3.426
249.98	-0.000
250.45	-0.000
250.92	2.633
251.39	-0.000
251.85	3.332
252.32	-0.000
252.79	-0.000
253.26	3.337
253.73	-0.000
254.20	3.378
254.67	2.762
255.14	3.707
255.61	-0.000
256.08	2.822
256.55	4.380
257.02	3.057
257.49	-0.000
257.95	3.332
258.42	3.268
258.89	2.951
259.36	3.600
259.83	3.472
260.30	-0.000
260.77	-0.000
261.24	3.316
261.71	-0.000
262.17	3.514
262.64	4.058
263.11	-0.000
263.58	-0.000
264.05	3.348
264.52	3.246
264.99	3.238
265.46	3.363
265.92	-0.000
266.39	3.231
266.86	-0.000
267.33	3.553
267.80	2.868
268.27	4.384
268.74	3.235
269.20	2.926
269.67	3.359
270.14	2.840
270.61	2.777
271.08	3.101
271.55	2.969
272.01	2.836
272.48	2.838
272.95	3.005
273.42	2.961
273.89	2.889
274.36	2.642
274.82	2.782
275.29	2.701
275.76	2.768
276.23	3.021
276.70	2.949
277.16	2.757
277.63	2.613
278.10	2.658
278.57	2.820
279.04	2.708
279.50	2.772
279.97	3.029
280.44	2.452
280.91	2.428
281.38	2.505
281.84	2.678
282.31	2.584
282.78	2.759
283.25	2.637
283.72	2.594
284.18	2.555
284.65	2.564
285.12	2.452
285.59	2.445
286.05	2.478
286.52	2.521
286.99	2.562
287.46	2.444
287.92	2.444
288.39	2.393
288.86	2.524
289.33	2.387
289.79	2.401
290.26	2.469
290.73	2.451
291.20	2.388
291.66	2.525
292.13	2.391
292.60	2.288
293.07	2.345
293.53	2.267
294.00	2.306
294.47	2.291
294.93	2.272
295.40	2.334
295.87	2.250
296.34	2.328
296.80	2.331
297.27	2.285
297.74	2.208
298.20	2.331
298.67	2.207
299.14	2.246
299.60	2.232
300.07	2.189
300.54	2.256
301.01	2.148
301.47	2.120
301.94	2.151
302.41	2.210
302.87	2.179
303.34	2.283
303.81	2.160
304.27	2.133
304.74	2.130
305.21	2.058
305.67	2.170
306.14	2.080
306.61	2.155
307.07	2.111
307.54	2.081
308.01	2.071
308.47	2.086
308.94	2.154
309.40	2.120
309.87	2.066
310.34	2.017
310.80	2.058
311.27	2.060
311.74	2.081
312.20	2.057
312.67	2.043
313.13	1.963
313.60	2.096
314.07	2.047
314.53	1.950
315.00	1.970
315.47	2.013
315.93	2.013
316.40	1.988
316.86	2.000
317.33	2.006
317.80	1.958
318.26	1.980
318.73	2.006
319.19	1.962
319.66	1.901
320.13	1.928
320.59	1.907
321.06	1.918
321.52	1.926
321.99	1.927
322.45	1.923
322.92	1.868
323.39	1.910
323.85	1.919
324.32	1.888
324.78	1.864
325.25	1.896
325.71	1.838
326.18	1.809
326.64	1.857
327.11	1.830
327.58	1.811
328.04	1.785
328.51	1.810
328.97	1.812
329.44	1.787
329.90	1.748
330.37	1.755
330.83	1.731
331.30	1.735
331.76	1.734
332.23	1.721
332.69	1.704
333.16	1.662
333.62	1.692
334.09	1.659
334.56	1.629
335.02	1.616
335.49	1.607
335.95	1.566
336.42	1.534
336.88	1.537
337.35	1.509
337.81	1.489
338.28	1.483
338.74	1.466
339.20	1.447
339.67	1.423
340.13	1.380
340.60	1.363
341.06	1.325
341.53	1.299
341.99	1.285
342.46	1.253
342.92	1.232
343.39	1.208
343.85	1.184
344.32	1.159
344.78	1.143
345.25	1.118
345.71	1.101
346.17	1.075
346.64	1.053
347.10	1.022
347.57	0.989
348.03	0.969
348.50	0.948
348.96	0.925
349.43	0.905
349.89	0.883
350.35	0.867
350.82	0.855
351.28	0.841
351.75	0.819
352.21	0.806
352.67	0.794
353.14	0.780
353.60	0.765
354.07	0.753
354.53	0.732
355.00	0.720
355.46	0.711
355.92	0.702
356.39	0.688
356.85	0.675
357.31	0.667
357.78	0.659
358.24	0.653
358.71	0.641
359.17	0.639
359.63	0.631
360.10	0.626
360.56	0.620
361.03	0.614
361.49	0.605
361.95	0.605
362.42	0.600
362.88	0.595
363.34	0.592
363.81	0.585
364.27	0.584
364.73	0.583
365.20	0.575
365.66	0.574
366.12	0.571
366.59	0.566
367.05	0.564
367.51	0.563
367.98	0.556
368.44	0.552
368.90	0.554
369.37	0.550
369.83	0.550
370.29	0.549
370.76	0.545
371.22	0.545
371.68	0.540
372.15	0.539
372.61	0.538
373.07	0.535
373.54	0.531
374.00	0.530
374.46	0.528
374.92	0.529
375.39	0.526
375.85	0.524
376.31	0.522
376.78	0.519
377.24	0.520
377.70	0.521
378.16	0.516
378.63	0.515
379.09	0.511
379.55	0.511
380.01	0.508
380.48	0.507
380.94	0.508
381.40	0.505
381.87	0.503
382.33	0.500
382.79	0.497
383.25	0.496
383.72	0.498
384.18	0.499
384.64	0.493
385.10	0.494
385.56	0.493
386.03	0.488
386.49	0.487
386.95	0.488
387.41	0.483
387.88	0.484
388.34	0.479
388.80	0.479
389.26	0.479
389.72	0.481
390.19	0.477
390.65	0.476
391.11	0.474
391.57	0.472
392.04	0.470
392.50	0.469
392.96	0.467
393.42	0.466
393.88	0.465
394.34	0.467
394.81	0.461
395.27	0.459
395.73	0.460
396.19	0.459
396.65	0.454
397.12	0.454
397.58	0.455
398.04	0.451
398.50	0.451
398.96	0.450
399.42	0.451
399.89	0.450
400.35	0.449
400.81	0.446
401.27	0.444
401.73	0.443
402.19	0.439
402.65	0.441
403.12	0.439
403.58	0.441
404.04	0.434
404.50	0.438
404.96	0.433
405.42	0.435
405.88	0.435
406.34	0.429
406.81	0.430
407.27	0.428
407.73	0.430
408.19	0.425
408.65	0.427
409.11	0.424
409.57	0.426
410.03	0.422
410.49	0.421
410.96	0.420
411.42	0.418
411.88	0.416
412.34	0.414
412.80	0.420
413.26	0.412
413.72	0.411
414.18	0.412
414.64	0.410
415.10	0.408
415.56	0.408
416.02	0.408
416.48	0.409
416.95	0.402
417.41	0.405
417.87	0.400
418.33	0.407
418.79	0.401
419.25	0.400
419.71	0.396
420.17	0.400
420.63	0.396
421.09	0.396
421.55	0.394
422.01	0.396
422.47	0.396
422.93	0.393
423.39	0.392
423.85	0.393
424.31	0.390
424.77	0.388
425.23	0.391
425.69	0.389
426.15	0.388
426.61	0.384
427.07	0.380
427.53	0.386
427.99	0.379
428.45	0.382
428.91	0.383
429.37	0.379
429.83	0.379
430.29	0.377
430.75	0.380
431.21	0.379
431.67	0.377
432.13	0.375
432.59	0.372
433.05	0.372
433.51	0.369
433.97	0.374
434.43	0.370
434.89	0.374
435.35	0.368
435.81	0.367
436.27	0.366
436.73	0.366
437.19	0.364
437.65	0.365
438.11	0.361
438.57	0.365
439.03	0.360
439.48	0.360
439.94	0.361
440.40	0.358
440.86	0.356
441.32	0.355
441.78	0.359
442.24	0.357
442.70	0.353
443.16	0.353
443.62	0.351
444.08	0.350
444.54	0.349
444.99	0.348
445.45	0.349
445.91	0.348
446.37	0.349
446.83	0.349
447.29	0.346
447.75	0.347
448.21	0.346
448.67	0.344
449.12	0.342
449.58	0.344
450.04	0.341
450.50	0.341
450.96	0.344
451.42	0.338
451.88	0.336
452.34	0.341
452.79	0.338
453.25	0.337
453.71	0.334
454.17	0.334
454.63	0.338
455.09	0.336
455.55	0.333
456.00	0.332
456.46	0.334
456.92	0.332
457.38	0.331
457.84	0.329
458.30	0.329
458.75	0.330
459.21	0.321
459.67	0.328
460.13	0.327
460.59	0.325
461.04	0.323
461.50	0.325
461.96	0.324
462.42	0.324
462.88	0.321
463.33	0.322
463.79	0.320
464.25	0.322
464.71	0.317
465.17	0.318
465.62	0.317
466.08	0.319
466.54	0.318
467.00	0.315
467.46	0.319
467.91	0.316
468.37	0.316
468.83	0.313
469.29	0.314
469.74	0.313
470.20	0.311
470.66	0.310
471.12	0.307
471.57	0.311
472.03	0.310
472.49	0.309
472.95	0.309
473.40	0.305
473.86	0.305
474.32	0.305
474.78	0.308
475.23	0.301
475.69	0.304
476.15	0.302
476.60	0.304
477.06	0.300
477.52	0.299
477.98	0.298
478.43	0.301
478.89	0.300
479.35	0.298
479.80	0.299
480.26	0.299
480.72	0.298
481.18	0.297
481.63	0.296
482.09	0.295
482.55	0.296
483.00	0.296
483.46	0.293
483.92	0.292
484.37	0.292
484.83	0.291
485.29	0.291
485.74	0.291
486.20	0.291
486.66	0.289
487.11	0.288
487.57	0.288
488.03	0.289
488.48	0.287
488.94	0.287
489.40	0.287
489.85	0.285
490.31	0.286
490.77	0.286
491.22	0.286
491.68	0.284
492.13	0.285
492.59	0.283
493.05	0.284
493.50	0.282
493.96	0.280
494.42	0.280
494.87	0.277
495.33	0.278
495.78	0.281
496.24	0.279
496.70	0.279
497.15	0.278
497.61	0.278
498.06	0.276
498.52	0.273
498.98	0.274
499.43	0.276
499.89	0.273
500.34	0.274
500.80	0.274
501.25	0.273
501.71	0.271
502.17	0.272
502.62	0.273
503.08	0.270
503.53	0.268
503.99	0.267
504.44	0.269
504.90	0.269
505.36	0.268
505.81	0.269
506.27	0.268
506.72	0.266
507.18	0.266
507.63	0.264
508.09	0.265
508.54	0.262
509.00	0.264
509.45	0.263
509.91	0.264
510.36	0.261
510.82	0.263
511.27	0.262
511.73	0.261
512.19	0.260
512.64	0.260
513.10	0.258
513.55	0.259
514.01	0.257
514.46	0.256
514.92	0.259
515.37	0.257
515.83	0.257
516.28	0.256
516.73	0.255
517.19	0.255
517.64	0.254
518.10	0.254
518.55	0.253
519.01	0.252
519.46	0.252
519.92	0.254
520.37	0.250
520.83	0.251
521.28	0.252
521.74	0.250
522.19	0.252
522.65	0.248
523.10	0.249
523.55	0.249
524.01	0.249
524.46	0.247
524.92	0.247
525.37	0.248
525.83	0.246
526.28	0.246
526.73	0.246
527.19	0.248
527.64	0.247
528.10	0.245
528.55	0.244
529.01	0.246
529.46	0.244
529.91	0.244
530.37	0.243
530.82	0.243
531.28	0.241
531.73	0.241
532.18	0.240
532.64	0.243
533.09	0.239
533.54	0.240
534.00	0.238
534.45	0.241
534.91	0.240
535.36	0.238
535.81	0.237
536.27	0.236
536.72	0.237
537.17	0.237
537.63	0.234
538.08	0.234
538.54	0.236
538.99	0.234
539.44	0.236
539.90	0.233
540.35	0.232
540.80	0.232
541.26	0.236
541.71	0.231
542.16	0.233
542.62	0.233
543.07	0.230
543.52	0.233
543.98	0.231
544.43	0.230
544.88	0.229
545.34	0.230
545.79	0.229
546.24	0.228
546.69	0.230
547.15	0.229
547.60	0.226
548.05	0.226
548.51	0.224
548.96	0.224
549.41	0.228
549.86	0.225
550.32	0.226
550.77	0.227
551.22	0.223
551.68	0.223
552.13	0.223
552.58	0.222
553.03	0.222
553.49	0.223
553.94	0.223
554.39	0.222
554.84	0.224
555.30	0.220
555.75	0.220
556.20	0.220
556.65	0.218
557.11	0.219
557.56	0.218
558.01	0.220
558.46	0.221
558.92	0.218
559.37	0.217
559.82	0.218
560.27	0.216
560.72	0.217
561.18	0.214
561.63	0.217
562.08	0.215
562.53	0.214
562.99	0.218
563.44	0.215
563.89	0.213
564.34	0.213
564.79	0.214
565.25	0.212
565.70	0.211
566.15	0.211
566.60	0.210
567.05	0.211
567.50	0.210
567.96	0.210
568.41	0.209
568.86	0.209
569.31	0.209
569.76	0.208
570.21	0.207
570.67	0.209
571.12	0.207
571.57	0.208
572.02	0.207
572.47	0.206
572.92	0.205
573.37	0.207
573.83	0.203
574.28	0.204
574.73	0.204
575.18	0.205
575.63	0.204
576.08	0.201
576.53	0.202
576.98	0.205
577.44	0.201
577.89	0.203
578.34	0.202
578.79	0.204
579.24	0.201
579.69	0.202
580.14	0.197
580.59	0.200
581.04	0.197
581.49	0.200
581.95	0.199
582.40	0.199
582.85	0.199
583.30	0.197
583.75	0.195
584.20	0.197
584.65	0.197
585.10	0.195
585.55	0.198
586.00	0.198
586.45	0.196
586.90	0.197
587.35	0.196
587.80	0.194
588.25	0.194
588.71	0.194
589.16	0.193
589.61	0.193
590.06	0.193
590.51	0.193
590.96	0.192
591.41	0.192
591.86	0.193
592.31	0.190
592.76	0.191
593.21	0.192
593.66	0.192
594.11	0.191
594.56	0.190
595.01	0.192
595.46	0.191
595.91	0.188
596.36	0.190
596.81	0.190
597.26	0.190
597.71	0.191
598.16	0.188
598.61	0.187
599.06	0.188
599.51	0.189
599.96	0.191
600.41	0.187
600.86	0.189
601.31	0.187
601.76	0.187
602.21	0.187
602.65	0.186
603.10	0.187
603.55	0.187
604.00	0.186
604.45	0.185
604.90	0.185
605.35	0.184
605.80	0.184
606.25	0.185
606.70	0.184
607.15	0.183
607.60	0.184
608.05	0.180
608.50	0.184
608.95	0.182
609.39	0.184
609.84	0.182
610.29	0.182
610.74	0.181
611.19	0.181
611.64	0.180
612.09	0.181
612.54	0.179
612.99	0.182
613.44	0.177
613.88	0.180
614.33	0.180
614.78	0.179
615.23	0.177
615.68	0.178
616.13	0.179
616.58	0.176
617.03	0.177
617.47	0.178
617.92	0.177
618.37	0.177
618.82	0.177
619.27	0.176
619.72	0.177
620.17	0.174
620.61	0.174
621.06	0.174
621.51	0.174
621.96	0.173
622.41	0.175
622.86	0.173
623.30	0.171
623.75	0.174
624.20	0.173
624.65	0.173
625.10	0.175
625.54	0.174
625.99	0.171
626.44	0.172
626.89	0.171
627.34	0.174
627.78	0.173
628.23	0.170
628.68	0.170
629.13	0.169
629.58	0.171
630.02	0.171
630.47	0.171
630.92	0.169
631.37	0.168
631.81	0.169
632.26	0.168
632.71	0.168
633.16	0.168
633.61	0.169
634.05	0.167
634.50	0.166
634.95	0.167
635.40	0.167
635.84	0.168
636.29	0.167
636.74	0.167
637.18	0.167
637.63	0.167
638.08	0.166
638.53	0.167
638.97	0.164
639.42	0.166
639.87	0.166
640.32	0.165
640.76	0.165
641.21	0.164
641.66	0.166
642.10	0.167
642.55	0.162
643.00	0.163
643.44	0.164
643.89	0.163
644.34	0.162
644.79	0.163
645.23	0.163
645.68	0.163
646.13	0.161
646.57	0.163
647.02	0.161
647.47	0.163
647.91	0.161
648.36	0.161
648.81	0.162
649.25	0.160
649.70	0.159
650.15	0.160
650.59	0.160
651.04	0.161
651.48	0.162
651.93	0.160
652.38	0.157
652.82	0.160
653.27	0.159
653.72	0.160
654.16	0.158
654.61	0.159
655.06	0.159
655.50	0.155
655.95	0.155
656.39	0.152
656.84	0.154
657.29	0.158
657.73	0.157
658.18	0.157
658.62	0.157
659.07	0.156
659.52	0.157
659.96	0.157
660.41	0.157
660.85	0.155
661.30	0.154
661.74	0.157
662.19	0.156
662.64	0.156
663.08	0.154
663.53	0.155
663.97	0.155
664.42	0.154
664.86	0.155
665.31	0.153
665.75	0.153
666.20	0.154
666.65	0.153
667.09	0.155
667.54	0.155
667.98	0.154
668.43	0.152
668.87	0.151
669.32	0.151
669.76	0.151
670.21	0.155
670.65	0.150
671.10	0.153
671.54	0.152
671.99	0.150
672.43	0.149
672.88	0.153
673.32	0.151
673.77	0.150
674.21	0.150
674.66	0.149
675.10	0.150
675.55	0.148
675.99	0.150
676.44	0.149
676.88	0.148
677.33	0.150
677.77	0.150
678.22	0.149
678.66	0.147
679.11	0.147
679.55	0.148
679.99	0.146
680.44	0.149
680.88	0.148
681.33	0.146
681.77	0.147
682.22	0.148
682.66	0.149
683.11	0.147
683.55	0.147
683.99	0.145
684.44	0.146
684.88	0.146
685.33	0.146
685.77	0.145
686.21	0.146
686.66	0.146
687.10	0.144
687.55	0.144
687.99	0.147
688.44	0.147
688.88	0.144
689.32	0.147
689.77	0.144
690.21	0.144
690.65	0.144
691.10	0.144
691.54	0.143
691.99	0.144
692.43	0.141
692.87	0.142
693.32	0.145
693.76	0.143
694.20	0.143
694.65	0.142
695.09	0.144
695.53	0.143
695.98	0.144
696.42	0.144
696.86	0.142
697.31	0.140
697.75	0.141
698.19	0.141
698.64	0.142
699.08	0.141
699.52	0.140
699.97	0.141
700.41	0.141
700.85	0.140
701.30	0.138
701.74	0.141
702.18	0.141
702.63	0.139
703.07	0.140
703.51	0.144
703.96	0.139
704.40	0.141
704.84	0.142
705.28	0.139
705.73	0.139
706.17	0.140
706.61	0.139
707.06	0.138
707.50	0.138
707.94	0.140
708.38	0.138
708.83	0.140
709.27	0.141
709.71	0.140
710.15	0.139
710.60	0.139
711.04	0.137
711.48	0.140
711.92	0.140
712.37	0.137
712.81	0.141
713.25	0.138
713.69	0.139
714.13	0.140
714.58	0.137
715.02	0.138
715.46	0.137
715.90	0.136
716.35	0.137
716.79	0.138
717.23	0.136
717.67	0.140
718.11	0.140
718.56	0.136
719.00	0.139
719.44	0.136
719.88	0.135
720.32	0.138
720.76	0.137
721.21	0.138
721.65	0.137
722.09	0.137
722.53	0.139
722.97	0.139
723.41	0.137
723.86	0.140
724.30	0.139
724.74	0.139
725.18	0.139
725.62	0.134
726.06	0.138
726.50	0.136
726.95	0.136
727.39	0.136
727.83	0.134
728.27	0.137
728.71	0.138
729.15	0.138
729.59	0.137
730.03	0.137
730.48	0.139
730.92	0.135
731.36	0.135
731.80	0.136
732.24	0.140
732.68	0.136
733.12	0.137
733.56	0.137
734.00	0.134
734.44	0.137
734.89	0.139
735.33	0.140
735.77	0.138
736.21	0.138
736.65	0.135
737.09	0.139
737.53	0.136
737.97	0.137
738.41	0.137
738.85	0.140
739.29	0.139
739.73	0.135
740.17	0.137
740.61	0.136
741.05	0.138
741.49	0.137
741.93	0.137
742.37	0.133
742.81	0.135
743.26	0.136
743.70	0.135
744.14	0.137
744.58	0.138
745.02	0.134
745.46	0.136
745.90	0.137
746.34	0.137
746.78	0.137
747.22	0.135
747.66	0.135
748.10	0.136
748.54	0.133
748.98	0.133
749.42	0.135
749.86	0.135
750.29	0.134
750.73	0.133
751.17	0.134
751.61	0.131
752.05	0.135
752.49	0.133
752.93	0.133
753.37	0.134
753.81	0.132
754.25	0.134
754.69	0.132
755.13	0.130
755.57	0.135
756.01	0.133
756.45	0.133
756.89	0.133
757.33	0.133
757.77	0.132
758.21	0.130
758.64	0.128
759.08	0.129
759.52	0.134
759.96	0.135
760.40	0.134
760.84	0.131
761.28	0.131
761.72	0.132
762.16	0.131
762.60	0.130
763.03	0.130
763.47	0.130
763.91	0.131
764.35	0.127
764.79	0.128
765.23	0.129
765.67	0.127
766.11	0.127
766.54	0.126
766.98	0.129
767.42	0.129
767.86	0.127
768.30	0.130
768.74	0.130
769.17	0.128
769.61	0.129
770.05	0.128
770.49	0.129
770.93	0.129
771.37	0.130
771.80	0.128
772.24	0.129
772.68	0.127
773.12	0.127
773.56	0.126
774.00	0.123
774.43	0.125
774.87	0.128
775.31	0.126
775.75	0.126
776.19	0.125
776.62	0.124
777.06	0.125
777.50	0.126
777.94	0.126
778.37	0.123
778.81	0.126
779.25	0.129
779.69	0.126
780.13	0.127
780.56	0.123
781.00	0.125
781.44	0.127
781.88	0.125
782.31	0.125
782.75	0.123
783.19	0.126
783.63	0.123
784.06	0.124
784.50	0.127
784.94	0.125
785.37	0.126
785.81	0.126
786.25	0.127
786.69	0.123
787.12	0.125
787.56	0.120
788.00	0.126
788.43	0.123
788.87	0.123
789.31	0.123
789.75	0.126
790.18	0.119
790.62	0.124
791.06	0.125
791.49	0.124
791.93	0.123
792.37	0.126
792.80	0.120
793.24	0.124
793.68	0.125
794.11	0.122
794.55	0.125
794.99	0.124
795.42	0.126
795.86	0.128
796.30	0.123
796.73	0.126
797.17	0.123
797.61	0.118
798.04	0.120
798.48	0.120
798.91	0.124
799.35	0.119
799.79	0.126
800.22	0.125
800.66	0.118
801.10	0.122
801.53	0.121
801.97	0.127
802.40	0.121
802.84	0.122
803.28	0.120
803.71	0.123
804.15	0.119
804.58	0.119
805.02	0.125
805.46	0.123
805.89	0.118
806.33	0.123
806.76	0.120
807.20	0.119
807.63	0.120
808.07	0.123
808.51	0.122
808.94	0.119
809.38	0.121
809.81	0.120
810.25	0.123
810.68	0.123
811.12	0.123
811.55	0.122
811.99	0.118
812.42	0.123
812.86	0.118
813.29	0.120
813.73	0.120
814.17	0.118
814.60	0.120
815.04	0.121
815.47	0.117
815.91	0.118
816.34	0.118
816.78	0.121
817.21	0.121
817.65	0.123
818.08	0.115
818.52	0.122
818.95	0.119
819.39	0.120
819.82	0.118
820.25	0.117
820.69	0.118
821.12	0.121
821.56	0.116
821.99	0.116
822.43	0.120
822.86	0.122
823.30	0.119
823.73	0.115
824.17	0.115
824.60	0.118
825.04	0.123
825.47	0.118
825.90	0.118
826.34	0.121
826.77	0.120
827.21	0.124
827.64	0.119
828.08	0.120
828.51	0.116
828.94	0.120
829.38	0.118
829.81	0.124
830.25	0.124
830.68	0.122
831.11	0.118
831.55	0.120
831.98	0.125
832.42	0.124
832.85	0.122
833.28	0.125
833.72	0.126
834.15	0.119
834.58	0.122
835.02	0.124
835.45	0.127
835.88	0.122
836.32	0.123
836.75	0.122
837.19	0.121
837.62	0.121
838.05	0.127
838.49	0.124
838.92	0.125
839.35	0.124
839.79	0.124
840.22	0.124
840.65	0.121
841.09	0.126
841.52	0.124
841.95	0.126
842.39	0.124
842.82	0.119
843.25	0.128
843.68	0.124
844.12	0.125
844.55	0.129
844.98	0.121
845.42	0.124
845.85	0.114
846.28	0.121
846.71	0.120
847.15	0.128
847.58	0.123
848.01	0.124
848.45	0.122
848.88	0.125
849.31	0.123
849.74	0.124
850.18	0.125
850.61	0.124
851.04	0.124
851.47	0.123
851.91	0.126
852.34	0.123
852.77	0.123
853.20	0.123
853.64	0.122
854.07	0.126
854.50	0.121
854.93	0.125
855.36	0.124
855.80	0.122
856.23	0.119
856.66	0.129
857.09	0.128
857.52	0.122
857.96	0.118
858.39	0.124
858.82	0.121
859.25	0.130
859.68	0.123
860.12	0.120
860.55	0.121
860.98	0.126
861.41	0.125
861.84	0.128
862.27	0.121
862.71	0.122
863.14	0.122
863.57	0.119
864.00	0.120
864.43	0.127
864.86	0.127
865.30	0.126
865.73	0.122
866.16	0.128
866.59	0.123
867.02	0.118
867.45	0.126
867.88	0.127
868.31	0.124
868.75	0.124
869.18	0.127
869.61	0.128
870.04	0.124
870.47	0.127
870.90	0.127
871.33	0.125
871.76	0.126
872.19	0.130
872.62	0.128
873.06	0.119
873.49	0.128
873.92	0.122
874.35	0.128
874.78	0.127
875.21	0.125
875.64	0.121
876.07	0.125
876.50	0.124
876.93	0.130
877.36	0.121
877.79	0.129
878.22	0.127
878.65	0.132
879.08	0.127
879.51	0.126
879.94	0.128
880.37	0.128
880.80	0.133
881.23	0.121
881.67	0.127
882.10	0.134
882.53	0.124
882.96	0.130
883.39	0.128
883.82	0.126
884.25	0.128
884.68	0.125
885.11	0.132
885.54	0.131
885.97	0.126
886.39	0.128
886.82	0.129
887.25	0.125
887.68	0.127
888.11	0.125
888.54	0.127
888.97	0.126
889.40	0.126
889.83	0.126
890.26	0.128
890.69	0.132
891.12	0.127
891.55	0.131
891.98	0.127
892.41	0.128
892.84	0.132
893.27	0.128
893.70	0.123
894.13	0.130
894.56	0.131
894.98	0.133
895.41	0.130
895.84	0.133
896.27	0.127
896.70	0.135
897.13	0.131
897.56	0.132
897.99	0.132
898.42	0.126
898.85	0.131
899.27	0.129
899.70	0.128
900.13	0.131
900.56	0.133
900.99	0.131
901.42	0.134
901.85	0.132
902.28	0.131
902.70	0.132
903.13	0.131
903.56	0.132
903.99	0.129
904.42	0.132
904.85	0.132
905.27	0.128
905.70	0.131
906.13	0.129
906.56	0.128
906.99	0.131
907.42	0.129
907.84	0.130
908.27	0.131
908.70	0.133
909.13	0.132
909.56	0.129
909.98	0.132
910.41	0.132
910.84	0.130
911.27	0.137
911.70	0.131
912.12	0.127
912.55	0.130
912.98	0.129
913.41	0.131
913.84	0.129
914.26	0.133
914.69	0.130
915.12	0.132
915.55	0.129
915.97	0.132
916.40	0.131
916.83	0.131
917.26	0.132
917.68	0.128
918.11	0.130
918.54	0.127
918.97	0.133
919.39	0.132
919.82	0.128
920.25	0.130
920.67	0.133
921.10	0.136
921.53	0.136
921.96	0.137
922.38	0.133
922.81	0.133
923.24	0.139
923.66	0.128
924.09	0.133
924.52	0.135
924.94	0.135
925.37	0.140
925.80	0.139
926.22	0.136
926.65	0.136
927.08	0.136
927.50	0.138
927.93	0.140
928.36	0.133
928.78	0.143
929.21	0.139
929.64	0.143
930.06	0.146
930.49	0.148
930.92	0.145
931.34	0.145
931.77	0.148
932.20	0.146
932.62	0.143
933.05	0.145
933.47	0.155
933.90	0.149
934.33	0.150
934.75	0.149
935.18	0.154
935.61	0.153
936.03	0.157
936.46	0.157
936.88	0.157
937.31	0.159
937.73	0.158
938.16	0.159
938.59	0.164
939.01	0.164
939.44	0.167
939.86	0.167
940.29	0.165
940.71	0.174
941.14	0.175
941.57	0.173
941.99	0.176
942.42	0.180
942.84	0.186
943.27	0.187
943.69	0.177
944.12	0.180
944.54	0.193
944.97	0.183
945.39	0.192
945.82	0.193
946.24	0.195
946.67	0.194
947.09	0.195
947.52	0.194
947.94	0.197
948.37	0.197
948.79	0.202
949.22	0.212
949.64	0.202
950.07	0.215
950.49	0.212
950.92	0.210
951.34	0.215
951.77	0.218
952.19	0.217
952.62	0.228
953.04	0.228
953.47	0.234
953.89	0.238
954.32	0.239
954.74	0.234
955.17	0.240
955.59	0.244
956.01	0.249
956.44	0.252
956.86	0.251
957.29	0.259
957.71	0.263
958.14	0.264
958.56	0.263
958.98	0.265
959.41	0.268
959.83	0.268
960.26	0.269
960.68	0.275
961.10	0.274
961.53	0.275
961.95	0.276
962.38	0.277
962.80	0.272
963.22	0.269
963.65	0.273
964.07	0.279
964.50	0.284
964.92	0.279
965.34	0.289
965.77	0.279
966.19	0.282
966.61	0.284
967.04	0.291
967.46	0.279
967.88	0.286
968.31	0.285
968.73	0.285
969.15	0.282
969.58	0.284
970.00	0.284
970.42	0.289
970.85	0.281
971.27	0.283
971.69	0.287
972.12	0.294
972.54	0.287
972.96	0.289
973.39	0.296
973.81	0.295
974.23	0.293
974.65	0.289
975.08	0.297
975.50	0.284
975.92	0.296
976.35	0.293
976.77	0.285
977.19	0.291
977.61	0.285
978.04	0.289
978.46	0.289
978.88	0.284
979.30	0.293
979.73	0.291
980.15	0.287
980.57	0.297
980.99	0.290
981.42	0.286
981.84	0.295
982.26	0.292
982.68	0.292
983.11	0.287
983.53	0.285
983.95	0.288
984.37	0.287
984.79	0.291
985.22	0.288
985.64	0.289
986.06	0.288
986.48	0.287
986.90	0.280
987.33	0.282
987.75	0.277
988.17	0.277
988.59	0.283
989.01	0.281
989.43	0.276
989.86	0.285
990.28	0.277
990.70	0.273
991.12	0.280
991.54	0.279
991.96	0.284
992.39	0.284
992.81	0.272
993.23	0.274
993.65	0.274
994.07	0.273
994.49	0.271
994.91	0.275
995.34	0.265
995.76	0.274
996.18	0.269
996.60	0.271
997.02	0.268
997.44	0.264
997.86	0.275
998.28	0.266
998.70	0.271
999.12	0.270
999.55	0.266
999.97	0.263
1000.39	0.263
1000.81	0.257
1001.23	0.258
1001.65	0.263
1002.07	0.267
1002.49	0.269
1002.91	0.257
1003.33	0.260
1003.75	0.262
1004.17	0.260
1004.59	0.250
1005.01	0.257
1005.43	0.250
1005.85	0.245
1006.28	0.253
1006.70	0.253
1007.12	0.255
1007.54	0.245
1007.96	0.251
1008.38	0.243
1008.80	0.249
1009.22	0.247
1009.64	0.246
1010.06	0.254
1010.48	0.243
1010.90	0.251
1011.32	0.239
1011.74	0.236
1012.16	0.239
1012.58	0.242
1013.00	0.240
1013.42	0.232
1013.84	0.231
1014.26	0.230
1014.67	0.232
1015.09	0.221
1015.51	0.236
1015.93	0.241
1016.35	0.225
1016.77	0.229
1017.19	0.226
1017.61	0.233
1018.03	0.226
1018.45	0.226
1018.87	0.239
1019.29	0.229
1019.71	0.221
1020.13	0.226
1020.55	0.218
1020.97	0.217
1021.38	0.216
1021.80	0.212
1022.22	0.225
1022.64	0.210
1023.06	0.213
1023.48	0.215
1023.90	0.216
1024.32	0.202
1024.74	0.208
1025.15	0.212
1025.57	0.210
1025.99	0.208
1026.41	0.221
1026.83	0.210
1027.25	0.200
1027.67	0.205
1028.08	0.207
1028.50	0.218
1028.92	0.193
1029.34	0.205
1029.76	0.212
1030.18	0.197
1030.60	0.205
1031.01	0.202
1031.43	0.208
1031.85	0.197
1032.27	0.202
1032.69	0.197
1033.10	0.210
1033.52	0.192
1033.94	0.205
1034.36	0.192
1034.78	0.191
1035.19	0.205
1035.61	0.187
1036.03	0.199
1036.45	0.187
1036.87	0.202
1037.28	0.199
1037.70	0.188
1038.12	0.188
1038.54	0.185
1038.95	0.179
1039.37	0.179
1039.79	0.186
1040.21	0.193
1040.62	0.201
1041.04	0.178
1041.46	0.193
1041.88	0.197
1042.29	0.181
1042.71	0.182
1043.13	0.206
1043.55	0.183
1043.96	0.182
1044.38	0.190
1044.80	0.189
1045.21	0.185
1045.63	0.162
1046.05	0.178
1046.47	0.202
1046.88	0.187
1047.30	0.189
1047.72	0.183
1048.13	0.173
1048.55	0.161
1048.97	0.193
1049.38	0.176
1049.80	0.173
1050.22	0.180
1050.63	0.171
1051.05	0.190
1051.47	0.179
1051.88	0.165
1052.30	0.193
1052.72	0.187
1053.13	0.153
1053.55	0.177
1053.97	0.182
1054.38	0.160
1054.80	0.179
1055.21	0.178
1055.63	0.149
1056.05	0.161
1056.46	0.168
1056.88	0.193
1057.29	0.179
1057.71	0.170
1058.13	0.214
1058.54	0.176
1058.96	0.144
1059.37	0.177
1059.79	0.186
1060.21	0.192
1060.62	0.158
1061.04	0.188
1061.45	0.209
1061.87	0.190
1062.28	0.162
1062.70	0.211
1063.12	0.167
1063.53	0.144
1063.95	0.180
1064.36	0.184
1064.78	0.196
1065.19	0.204
1065.61	0.156
1066.02	0.265
1066.44	0.267
1066.85	0.184
1067.27	0.224
1067.68	0.217
1068.10	0.168
1068.51	0.233
1068.93	0.217
1069.35	0.312
1069.76	0.210
1070.17	0.262
1070.59	0.234
1071.00	0.256
1071.42	0.181
1071.83	0.341
1072.25	0.269
1072.66	0.180
1073.08	0.431
1073.49	0.342
1073.91	0.388
1074.32	0.249
1074.74	0.289
1075.15	0.439
1075.57	0.164
1075.98	0.389
1076.40	0.322
1076.81	0.450
1077.22	0.252
1077.64	0.267
1078.05	0.578
1078.47	0.288
1078.88	0.550
1079.30	0.575
1079.71	1.134
1080.12	0.807
1080.54	0.888
1080.95	0.728
1081.37	-0.000
1081.78	0.377
1082.19	0.944
1082.61	1.151
1083.02	0.897
1083.44	0.730
1083.85	0.301
1084.26	1.667
1084.68	0.954
1085.09	0.845
1085.50	-0.000
1085.92	-0.000
1086.33	0.686
1086.74	-0.000
1087.16	-0.000
1087.57	-0.000
1087.98	0.535
1088.40	0.423
1088.81	0.809
1089.22	0.969
1089.64	1.267
1090.05	-0.000
1090.46	-0.000
1090.88	0.293
1091.29	-0.000
1091.70	-0.000
1092.12	1.101
1092.53	-0.000
1092.94	-0.000
1093.36	-0.000
1093.77	-0.000
1094.18	0.975
1094.59	-0.000
1095.01	-0.000
1095.42	1.104
1095.83	-0.000
1096.25	-0.000
1096.66	-0.000
1097.07	-0.000
1097.48	-0.000
1097.90	-0.000
1098.31	1.305
1098.72	-0.000
1099.13	-0.000
>>>>>End Processed Spectral Data<<<<<
