SpectraSuite Data File
++++++++++++++++++++++++++++++++++++
Date: Sun Apr 24 13:07:01 CEST 2016
User: spectrasuite
Dark Spectrum Present: Yes
Reference Spectrum Present: Yes
Number of Sampled Component Spectra: 1
Spectrometers: HR+C0708
Integration Time (usec): 1000 (HR+C0708)
Spectra Averaged: 10 (HR+C0708)
Boxcar Smoothing: 0 (HR+C0708)
Correct for Electrical Dark: No (HR+C0708)
Strobe/Lamp Enabled: No (HR+C0708)
Correct for Detector Non-linearity: No (HR+C0708)
Correct for Stray Light: No (HR+C0708)
Number of Pixels in Processed Spectrum: 2048
>>>>>Begin Processed Spectral Data<<<<<
188.76	1.307
189.23	-0.008
189.70	1.016
190.17	-0.000
190.64	-0.000
191.12	0.772
191.59	-0.000
192.06	-0.000
192.53	-0.000
193.01	-0.000
193.48	1.860
193.95	-0.000
194.42	-0.000
194.90	0.126
195.37	-0.000
195.84	-0.000
196.31	1.090
196.78	0.365
197.26	-0.000
197.73	-0.000
198.20	-0.000
198.67	-0.000
199.14	0.088
199.62	0.031
200.09	0.805
200.56	1.511
201.03	0.584
201.50	0.683
201.97	0.627
202.45	0.698
202.92	0.613
203.39	0.613
203.86	0.950
204.33	0.719
204.80	0.598
205.28	0.651
205.75	1.103
206.22	0.960
206.69	0.486
207.16	0.674
207.63	0.572
208.11	0.469
208.58	0.950
209.05	0.988
209.52	0.651
209.99	0.505
210.46	0.537
210.93	0.754
211.41	0.571
211.88	0.561
212.35	1.037
212.82	-0.000
213.29	0.644
213.76	0.819
214.23	1.153
214.70	0.680
215.18	0.746
215.65	0.620
216.12	0.902
216.59	0.604
217.06	0.668
217.53	0.527
218.00	0.963
218.47	0.666
218.94	0.864
219.41	1.239
219.89	0.955
220.36	0.733
220.83	1.057
221.30	1.020
221.77	0.567
222.24	0.862
222.71	0.728
223.18	0.976
223.65	0.772
224.12	0.969
224.59	-0.000
225.06	1.239
225.54	0.832
226.01	0.870
226.48	1.328
226.95	1.124
227.42	1.195
227.89	1.663
228.36	1.683
228.83	1.539
229.30	1.450
229.77	1.473
230.24	1.340
230.71	1.707
231.18	1.892
231.65	1.646
232.12	1.435
232.59	1.695
233.06	2.125
233.53	1.822
234.00	1.676
234.47	1.847
234.94	3.085
235.41	2.038
235.88	2.063
236.35	2.418
236.82	2.126
237.29	1.925
237.76	2.103
238.23	2.269
238.70	2.066
239.17	2.070
239.64	2.181
240.11	2.356
240.58	2.286
241.05	2.586
241.52	2.800
241.99	2.433
242.46	2.216
242.93	2.540
243.40	2.387
243.87	2.324
244.34	2.182
244.81	2.495
245.28	2.912
245.75	2.650
246.22	2.563
246.69	2.570
247.16	2.619
247.63	2.324
248.10	2.473
248.57	2.704
249.04	2.611
249.51	2.737
249.98	3.069
250.45	2.722
250.92	2.480
251.39	2.644
251.85	2.542
252.32	2.811
252.79	2.512
253.26	2.587
253.73	3.145
254.20	2.603
254.67	2.534
255.14	2.791
255.61	2.622
256.08	2.637
256.55	2.840
257.02	2.546
257.49	2.805
257.95	2.707
258.42	2.702
258.89	2.833
259.36	2.669
259.83	2.824
260.30	3.035
260.77	3.865
261.24	2.764
261.71	2.965
262.17	2.927
262.64	2.680
263.11	2.839
263.58	3.356
264.05	2.928
264.52	2.774
264.99	2.839
265.46	2.849
265.92	2.914
266.39	2.722
266.86	3.457
267.33	3.021
267.80	2.681
268.27	3.174
268.74	2.926
269.20	3.384
269.67	2.838
270.14	2.720
270.61	2.908
271.08	2.771
271.55	2.630
272.01	2.829
272.48	2.990
272.95	2.723
273.42	2.872
273.89	2.881
274.36	2.815
274.82	2.649
275.29	2.706
275.76	2.713
276.23	2.773
276.70	2.734
277.16	2.671
277.63	2.592
278.10	2.541
278.57	2.629
279.04	2.815
279.50	2.662
279.97	2.708
280.44	2.588
280.91	2.668
281.38	2.655
281.84	2.629
282.31	2.732
282.78	2.997
283.25	2.695
283.72	2.660
284.18	2.766
284.65	2.758
285.12	2.569
285.59	2.573
286.05	2.664
286.52	2.534
286.99	2.750
287.46	2.642
287.92	2.624
288.39	2.511
288.86	2.748
289.33	2.584
289.79	2.619
290.26	2.662
290.73	2.645
291.20	2.616
291.66	2.643
292.13	2.554
292.60	2.594
293.07	2.514
293.53	2.412
294.00	2.711
294.47	2.618
294.93	2.544
295.40	2.601
295.87	2.532
296.34	2.553
296.80	2.340
297.27	2.553
297.74	2.413
298.20	2.509
298.67	2.337
299.14	2.515
299.60	2.510
300.07	2.424
300.54	2.400
301.01	2.477
301.47	2.424
301.94	2.316
302.41	2.363
302.87	2.381
303.34	2.472
303.81	2.317
304.27	2.363
304.74	2.329
305.21	2.271
305.67	2.374
306.14	2.285
306.61	2.315
307.07	2.317
307.54	2.327
308.01	2.323
308.47	2.259
308.94	2.396
309.40	2.347
309.87	2.265
310.34	2.257
310.80	2.265
311.27	2.272
311.74	2.230
312.20	2.264
312.67	2.321
313.13	2.287
313.60	2.384
314.07	2.299
314.53	2.315
315.00	2.267
315.47	2.280
315.93	2.351
316.40	2.270
316.86	2.369
317.33	2.284
317.80	2.300
318.26	2.296
318.73	2.295
319.19	2.253
319.66	2.192
320.13	2.274
320.59	2.227
321.06	2.320
321.52	2.336
321.99	2.235
322.45	2.219
322.92	2.170
323.39	2.167
323.85	2.123
324.32	2.161
324.78	2.151
325.25	2.088
325.71	2.061
326.18	2.077
326.64	2.194
327.11	2.036
327.58	2.009
328.04	1.970
328.51	2.016
328.97	1.965
329.44	1.936
329.90	1.911
330.37	1.888
330.83	1.827
331.30	1.866
331.76	1.783
332.23	1.747
332.69	1.716
333.16	1.661
333.62	1.621
334.09	1.578
334.56	1.522
335.02	1.487
335.49	1.441
335.95	1.374
336.42	1.325
336.88	1.285
337.35	1.231
337.81	1.201
338.28	1.157
338.74	1.112
339.20	1.061
339.67	1.023
340.13	0.985
340.60	0.930
341.06	0.883
341.53	0.844
341.99	0.806
342.46	0.764
342.92	0.731
343.39	0.692
343.85	0.660
344.32	0.631
344.78	0.609
345.25	0.583
345.71	0.554
346.17	0.528
346.64	0.498
347.10	0.466
347.57	0.435
348.03	0.407
348.50	0.384
348.96	0.363
349.43	0.346
349.89	0.331
350.35	0.308
350.82	0.294
351.28	0.286
351.75	0.266
352.21	0.252
352.67	0.237
353.14	0.234
353.60	0.221
354.07	0.210
354.53	0.203
355.00	0.196
355.46	0.190
355.92	0.178
356.39	0.172
356.85	0.171
357.31	0.164
357.78	0.159
358.24	0.155
358.71	0.149
359.17	0.147
359.63	0.145
360.10	0.142
360.56	0.139
361.03	0.138
361.49	0.134
361.95	0.135
362.42	0.131
362.88	0.130
363.34	0.130
363.81	0.129
364.27	0.127
364.73	0.127
365.20	0.127
365.66	0.125
366.12	0.124
366.59	0.121
367.05	0.123
367.51	0.120
367.98	0.120
368.44	0.121
368.90	0.121
369.37	0.117
369.83	0.114
370.29	0.117
370.76	0.115
371.22	0.114
371.68	0.115
372.15	0.113
372.61	0.111
373.07	0.112
373.54	0.111
374.00	0.113
374.46	0.113
374.92	0.114
375.39	0.110
375.85	0.109
376.31	0.111
376.78	0.110
377.24	0.111
377.70	0.111
378.16	0.107
378.63	0.107
379.09	0.109
379.55	0.105
380.01	0.108
380.48	0.107
380.94	0.105
381.40	0.106
381.87	0.103
382.33	0.104
382.79	0.104
383.25	0.104
383.72	0.104
384.18	0.104
384.64	0.102
385.10	0.103
385.56	0.105
386.03	0.101
386.49	0.104
386.95	0.101
387.41	0.100
387.88	0.101
388.34	0.102
388.80	0.099
389.26	0.101
389.72	0.101
390.19	0.100
390.65	0.101
391.11	0.100
391.57	0.101
392.04	0.098
392.50	0.099
392.96	0.095
393.42	0.096
393.88	0.098
394.34	0.099
394.81	0.099
395.27	0.097
395.73	0.096
396.19	0.098
396.65	0.094
397.12	0.097
397.58	0.094
398.04	0.095
398.50	0.094
398.96	0.092
399.42	0.095
399.89	0.092
400.35	0.091
400.81	0.091
401.27	0.091
401.73	0.091
402.19	0.089
402.65	0.090
403.12	0.089
403.58	0.088
404.04	0.090
404.50	0.090
404.96	0.085
405.42	0.088
405.88	0.086
406.34	0.086
406.81	0.088
407.27	0.087
407.73	0.086
408.19	0.085
408.65	0.082
409.11	0.084
409.57	0.086
410.03	0.083
410.49	0.085
410.96	0.084
411.42	0.083
411.88	0.082
412.34	0.080
412.80	0.083
413.26	0.080
413.72	0.081
414.18	0.079
414.64	0.078
415.10	0.082
415.56	0.081
416.02	0.082
416.48	0.079
416.95	0.077
417.41	0.077
417.87	0.077
418.33	0.079
418.79	0.077
419.25	0.076
419.71	0.076
420.17	0.078
420.63	0.076
421.09	0.076
421.55	0.072
422.01	0.075
422.47	0.076
422.93	0.075
423.39	0.077
423.85	0.078
424.31	0.075
424.77	0.074
425.23	0.076
425.69	0.075
426.15	0.076
426.61	0.075
427.07	0.073
427.53	0.075
427.99	0.073
428.45	0.076
428.91	0.076
429.37	0.074
429.83	0.073
430.29	0.072
430.75	0.074
431.21	0.075
431.67	0.074
432.13	0.074
432.59	0.072
433.05	0.074
433.51	0.073
433.97	0.073
434.43	0.072
434.89	0.074
435.35	0.073
435.81	0.074
436.27	0.070
436.73	0.070
437.19	0.070
437.65	0.076
438.11	0.071
438.57	0.072
439.03	0.074
439.48	0.070
439.94	0.068
440.40	0.075
440.86	0.072
441.32	0.070
441.78	0.072
442.24	0.071
442.70	0.074
443.16	0.071
443.62	0.070
444.08	0.070
444.54	0.072
444.99	0.069
445.45	0.070
445.91	0.072
446.37	0.073
446.83	0.071
447.29	0.071
447.75	0.072
448.21	0.074
448.67	0.073
449.12	0.072
449.58	0.072
450.04	0.072
450.50	0.072
450.96	0.073
451.42	0.070
451.88	0.068
452.34	0.071
452.79	0.069
453.25	0.074
453.71	0.070
454.17	0.069
454.63	0.072
455.09	0.070
455.55	0.075
456.00	0.072
456.46	0.072
456.92	0.071
457.38	0.073
457.84	0.069
458.30	0.068
458.75	0.074
459.21	0.071
459.67	0.074
460.13	0.072
460.59	0.072
461.04	0.071
461.50	0.074
461.96	0.072
462.42	0.072
462.88	0.070
463.33	0.071
463.79	0.068
464.25	0.073
464.71	0.069
465.17	0.071
465.62	0.071
466.08	0.070
466.54	0.071
467.00	0.071
467.46	0.073
467.91	0.071
468.37	0.073
468.83	0.073
469.29	0.073
469.74	0.070
470.20	0.073
470.66	0.072
471.12	0.068
471.57	0.073
472.03	0.072
472.49	0.073
472.95	0.071
473.40	0.073
473.86	0.071
474.32	0.070
474.78	0.073
475.23	0.072
475.69	0.073
476.15	0.071
476.60	0.075
477.06	0.073
477.52	0.074
477.98	0.069
478.43	0.073
478.89	0.072
479.35	0.073
479.80	0.074
480.26	0.076
480.72	0.073
481.18	0.075
481.63	0.073
482.09	0.076
482.55	0.074
483.00	0.071
483.46	0.074
483.92	0.073
484.37	0.074
484.83	0.074
485.29	0.073
485.74	0.074
486.20	0.075
486.66	0.072
487.11	0.074
487.57	0.072
488.03	0.072
488.48	0.074
488.94	0.073
489.40	0.074
489.85	0.073
490.31	0.075
490.77	0.073
491.22	0.075
491.68	0.075
492.13	0.075
492.59	0.073
493.05	0.074
493.50	0.074
493.96	0.076
494.42	0.075
494.87	0.073
495.33	0.072
495.78	0.075
496.24	0.077
496.70	0.074
497.15	0.074
497.61	0.074
498.06	0.073
498.52	0.073
498.98	0.073
499.43	0.074
499.89	0.075
500.34	0.074
500.80	0.075
501.25	0.075
501.71	0.074
502.17	0.073
502.62	0.077
503.08	0.072
503.53	0.071
503.99	0.072
504.44	0.074
504.90	0.073
505.36	0.070
505.81	0.072
506.27	0.073
506.72	0.073
507.18	0.073
507.63	0.072
508.09	0.074
508.54	0.071
509.00	0.072
509.45	0.073
509.91	0.071
510.36	0.072
510.82	0.072
511.27	0.073
511.73	0.072
512.19	0.071
512.64	0.072
513.10	0.072
513.55	0.072
514.01	0.070
514.46	0.070
514.92	0.070
515.37	0.071
515.83	0.072
516.28	0.071
516.73	0.071
517.19	0.073
517.64	0.068
518.10	0.073
518.55	0.072
519.01	0.071
519.46	0.071
519.92	0.072
520.37	0.070
520.83	0.071
521.28	0.072
521.74	0.071
522.19	0.073
522.65	0.069
523.10	0.072
523.55	0.072
524.01	0.073
524.46	0.071
524.92	0.070
525.37	0.072
525.83	0.071
526.28	0.072
526.73	0.072
527.19	0.073
527.64	0.073
528.10	0.071
528.55	0.073
529.01	0.074
529.46	0.072
529.91	0.074
530.37	0.073
530.82	0.073
531.28	0.073
531.73	0.072
532.18	0.073
532.64	0.073
533.09	0.075
533.54	0.074
534.00	0.073
534.45	0.076
534.91	0.075
535.36	0.077
535.81	0.076
536.27	0.075
536.72	0.077
537.17	0.077
537.63	0.076
538.08	0.077
538.54	0.080
538.99	0.077
539.44	0.079
539.90	0.078
540.35	0.078
540.80	0.078
541.26	0.081
541.71	0.079
542.16	0.082
542.62	0.079
543.07	0.082
543.52	0.083
543.98	0.084
544.43	0.083
544.88	0.083
545.34	0.086
545.79	0.087
546.24	0.082
546.69	0.087
547.15	0.086
547.60	0.086
548.05	0.089
548.51	0.087
548.96	0.088
549.41	0.091
549.86	0.088
550.32	0.091
550.77	0.093
551.22	0.092
551.68	0.090
552.13	0.091
552.58	0.093
553.03	0.095
553.49	0.097
553.94	0.097
554.39	0.097
554.84	0.099
555.30	0.098
555.75	0.100
556.20	0.098
556.65	0.100
557.11	0.102
557.56	0.100
558.01	0.105
558.46	0.106
558.92	0.104
559.37	0.107
559.82	0.109
560.27	0.107
560.72	0.108
561.18	0.108
561.63	0.109
562.08	0.107
562.53	0.113
562.99	0.112
563.44	0.114
563.89	0.112
564.34	0.115
564.79	0.118
565.25	0.116
565.70	0.118
566.15	0.118
566.60	0.121
567.05	0.121
567.50	0.122
567.96	0.121
568.41	0.123
568.86	0.125
569.31	0.125
569.76	0.126
570.21	0.128
570.67	0.127
571.12	0.130
571.57	0.133
572.02	0.129
572.47	0.131
572.92	0.133
573.37	0.136
573.83	0.135
574.28	0.138
574.73	0.139
575.18	0.141
575.63	0.142
576.08	0.143
576.53	0.143
576.98	0.146
577.44	0.144
577.89	0.149
578.34	0.149
578.79	0.150
579.24	0.153
579.69	0.154
580.14	0.155
580.59	0.156
581.04	0.159
581.49	0.161
581.95	0.163
582.40	0.165
582.85	0.167
583.30	0.166
583.75	0.169
584.20	0.172
584.65	0.175
585.10	0.175
585.55	0.176
586.00	0.183
586.45	0.183
586.90	0.186
587.35	0.186
587.80	0.189
588.25	0.191
588.71	0.194
589.16	0.197
589.61	0.200
590.06	0.203
590.51	0.205
590.96	0.207
591.41	0.209
591.86	0.213
592.31	0.215
592.76	0.218
593.21	0.220
593.66	0.224
594.11	0.227
594.56	0.228
595.01	0.233
595.46	0.236
595.91	0.238
596.36	0.242
596.81	0.245
597.26	0.247
597.71	0.250
598.16	0.253
598.61	0.256
599.06	0.259
599.51	0.265
599.96	0.268
600.41	0.268
600.86	0.272
601.31	0.275
601.76	0.277
602.21	0.281
602.65	0.285
603.10	0.286
603.55	0.288
604.00	0.292
604.45	0.294
604.90	0.297
605.35	0.300
605.80	0.304
606.25	0.306
606.70	0.309
607.15	0.312
607.60	0.315
608.05	0.314
608.50	0.317
608.95	0.320
609.39	0.324
609.84	0.327
610.29	0.326
610.74	0.329
611.19	0.329
611.64	0.332
612.09	0.335
612.54	0.334
612.99	0.337
613.44	0.335
613.88	0.343
614.33	0.340
614.78	0.341
615.23	0.339
615.68	0.343
616.13	0.345
616.58	0.345
617.03	0.345
617.47	0.347
617.92	0.347
618.37	0.348
618.82	0.349
619.27	0.349
619.72	0.351
620.17	0.352
620.61	0.352
621.06	0.351
621.51	0.354
621.96	0.353
622.41	0.354
622.86	0.354
623.30	0.353
623.75	0.356
624.20	0.355
624.65	0.358
625.10	0.359
625.54	0.359
625.99	0.358
626.44	0.363
626.89	0.361
627.34	0.365
627.78	0.364
628.23	0.366
628.68	0.367
629.13	0.367
629.58	0.369
630.02	0.373
630.47	0.373
630.92	0.377
631.37	0.378
631.81	0.381
632.26	0.382
632.71	0.385
633.16	0.388
633.61	0.389
634.05	0.391
634.50	0.395
634.95	0.399
635.40	0.402
635.84	0.404
636.29	0.408
636.74	0.411
637.18	0.413
637.63	0.418
638.08	0.419
638.53	0.424
638.97	0.428
639.42	0.434
639.87	0.438
640.32	0.440
640.76	0.444
641.21	0.451
641.66	0.454
642.10	0.457
642.55	0.464
643.00	0.464
643.44	0.472
643.89	0.477
644.34	0.483
644.79	0.487
645.23	0.489
645.68	0.499
646.13	0.504
646.57	0.507
647.02	0.511
647.47	0.522
647.91	0.524
648.36	0.529
648.81	0.534
649.25	0.539
649.70	0.539
650.15	0.550
650.59	0.554
651.04	0.558
651.48	0.566
651.93	0.568
652.38	0.572
652.82	0.578
653.27	0.584
653.72	0.588
654.16	0.592
654.61	0.601
655.06	0.601
655.50	0.604
655.95	0.605
656.39	0.610
656.84	0.616
657.29	0.624
657.73	0.628
658.18	0.629
658.62	0.633
659.07	0.639
659.52	0.642
659.96	0.644
660.41	0.646
660.85	0.647
661.30	0.651
661.74	0.656
662.19	0.663
662.64	0.664
663.08	0.665
663.53	0.665
663.97	0.667
664.42	0.670
664.86	0.676
665.31	0.674
665.75	0.671
666.20	0.674
666.65	0.675
667.09	0.673
667.54	0.671
667.98	0.671
668.43	0.665
668.87	0.664
669.32	0.663
669.76	0.661
670.21	0.655
670.65	0.648
671.10	0.646
671.54	0.641
671.99	0.634
672.43	0.630
672.88	0.617
673.32	0.615
673.77	0.603
674.21	0.594
674.66	0.583
675.10	0.579
675.55	0.562
675.99	0.555
676.44	0.545
676.88	0.535
677.33	0.520
677.77	0.510
678.22	0.496
678.66	0.484
679.11	0.473
679.55	0.459
679.99	0.444
680.44	0.438
680.88	0.419
681.33	0.409
681.77	0.395
682.22	0.384
682.66	0.372
683.11	0.357
683.55	0.347
683.99	0.335
684.44	0.323
684.88	0.311
685.33	0.301
685.77	0.291
686.21	0.279
686.66	0.269
687.10	0.259
687.55	0.246
687.99	0.239
688.44	0.234
688.88	0.221
689.32	0.214
689.77	0.205
690.21	0.196
690.65	0.189
691.10	0.182
691.54	0.175
691.99	0.167
692.43	0.159
692.87	0.155
693.32	0.151
693.76	0.145
694.20	0.140
694.65	0.134
695.09	0.130
695.53	0.121
695.98	0.119
696.42	0.115
696.86	0.110
697.31	0.104
697.75	0.102
698.19	0.099
698.64	0.095
699.08	0.094
699.52	0.089
699.97	0.086
700.41	0.085
700.85	0.083
701.30	0.079
701.74	0.077
702.18	0.075
702.63	0.072
703.07	0.073
703.51	0.070
703.96	0.068
704.40	0.064
704.84	0.065
705.28	0.061
705.73	0.060
706.17	0.060
706.61	0.056
707.06	0.054
707.50	0.056
707.94	0.054
708.38	0.053
708.83	0.055
709.27	0.051
709.71	0.051
710.15	0.051
710.60	0.047
711.04	0.046
711.48	0.049
711.92	0.049
712.37	0.046
712.81	0.046
713.25	0.043
713.69	0.043
714.13	0.044
714.58	0.043
715.02	0.041
715.46	0.040
715.90	0.040
716.35	0.040
716.79	0.042
717.23	0.041
717.67	0.040
718.11	0.041
718.56	0.040
719.00	0.041
719.44	0.038
719.88	0.040
720.32	0.039
720.76	0.039
721.21	0.038
721.65	0.037
722.09	0.038
722.53	0.039
722.97	0.041
723.41	0.036
723.86	0.039
724.30	0.037
724.74	0.040
725.18	0.038
725.62	0.037
726.06	0.039
726.50	0.037
726.95	0.036
727.39	0.036
727.83	0.036
728.27	0.038
728.71	0.037
729.15	0.039
729.59	0.039
730.03	0.037
730.48	0.038
730.92	0.035
731.36	0.039
731.80	0.037
732.24	0.038
732.68	0.036
733.12	0.039
733.56	0.038
734.00	0.039
734.44	0.040
734.89	0.039
735.33	0.040
735.77	0.041
736.21	0.040
736.65	0.037
737.09	0.040
737.53	0.039
737.97	0.040
738.41	0.039
738.85	0.042
739.29	0.041
739.73	0.041
740.17	0.039
740.61	0.040
741.05	0.044
741.49	0.040
741.93	0.039
742.37	0.039
742.81	0.040
743.26	0.039
743.70	0.041
744.14	0.040
744.58	0.039
745.02	0.041
745.46	0.040
745.90	0.039
746.34	0.041
746.78	0.039
747.22	0.041
747.66	0.039
748.10	0.039
748.54	0.039
748.98	0.040
749.42	0.041
749.86	0.040
750.29	0.040
750.73	0.039
751.17	0.038
751.61	0.037
752.05	0.041
752.49	0.038
752.93	0.038
753.37	0.038
753.81	0.038
754.25	0.040
754.69	0.036
755.13	0.038
755.57	0.041
756.01	0.039
756.45	0.039
756.89	0.039
757.33	0.040
757.77	0.041
758.21	0.039
758.64	0.037
759.08	0.036
759.52	0.039
759.96	0.041
760.40	0.039
760.84	0.038
761.28	0.040
761.72	0.040
762.16	0.038
762.60	0.040
763.03	0.039
763.47	0.038
763.91	0.039
764.35	0.038
764.79	0.038
765.23	0.038
765.67	0.039
766.11	0.036
766.54	0.036
766.98	0.041
767.42	0.040
767.86	0.035
768.30	0.041
768.74	0.040
769.17	0.039
769.61	0.040
770.05	0.040
770.49	0.041
770.93	0.040
771.37	0.036
771.80	0.037
772.24	0.037
772.68	0.037
773.12	0.039
773.56	0.039
774.00	0.039
774.43	0.036
774.87	0.036
775.31	0.037
775.75	0.039
776.19	0.038
776.62	0.036
777.06	0.038
777.50	0.038
777.94	0.039
778.37	0.035
778.81	0.037
779.25	0.041
779.69	0.039
780.13	0.037
780.56	0.037
781.00	0.038
781.44	0.038
781.88	0.038
782.31	0.038
782.75	0.037
783.19	0.038
783.63	0.034
784.06	0.035
784.50	0.038
784.94	0.037
785.37	0.039
785.81	0.038
786.25	0.039
786.69	0.036
787.12	0.037
787.56	0.037
788.00	0.037
788.43	0.040
788.87	0.037
789.31	0.035
789.75	0.037
790.18	0.035
790.62	0.035
791.06	0.036
791.49	0.038
791.93	0.036
792.37	0.041
792.80	0.035
793.24	0.036
793.68	0.038
794.11	0.036
794.55	0.039
794.99	0.037
795.42	0.039
795.86	0.041
796.30	0.039
796.73	0.038
797.17	0.039
797.61	0.038
798.04	0.037
798.48	0.040
798.91	0.035
799.35	0.037
799.79	0.039
800.22	0.037
800.66	0.035
801.10	0.037
801.53	0.040
801.97	0.042
802.40	0.040
802.84	0.035
803.28	0.037
803.71	0.039
804.15	0.034
804.58	0.039
805.02	0.041
805.46	0.037
805.89	0.037
806.33	0.039
806.76	0.038
807.20	0.038
807.63	0.035
808.07	0.039
808.51	0.036
808.94	0.034
809.38	0.036
809.81	0.039
810.25	0.038
810.68	0.039
811.12	0.039
811.55	0.043
811.99	0.039
812.42	0.040
812.86	0.039
813.29	0.037
813.73	0.040
814.17	0.036
814.60	0.038
815.04	0.040
815.47	0.038
815.91	0.036
816.34	0.037
816.78	0.038
817.21	0.039
817.65	0.042
818.08	0.037
818.52	0.041
818.95	0.040
819.39	0.040
819.82	0.038
820.25	0.039
820.69	0.038
821.12	0.039
821.56	0.041
821.99	0.038
822.43	0.038
822.86	0.043
823.30	0.046
823.73	0.042
824.17	0.041
824.60	0.040
825.04	0.045
825.47	0.040
825.90	0.040
826.34	0.041
826.77	0.043
827.21	0.041
827.64	0.040
828.08	0.043
828.51	0.040
828.94	0.040
829.38	0.043
829.81	0.044
830.25	0.044
830.68	0.049
831.11	0.042
831.55	0.043
831.98	0.044
832.42	0.045
832.85	0.049
833.28	0.047
833.72	0.047
834.15	0.043
834.58	0.049
835.02	0.048
835.45	0.048
835.88	0.047
836.32	0.047
836.75	0.047
837.19	0.050
837.62	0.052
838.05	0.047
838.49	0.049
838.92	0.050
839.35	0.050
839.79	0.049
840.22	0.048
840.65	0.046
841.09	0.051
841.52	0.047
841.95	0.048
842.39	0.052
842.82	0.047
843.25	0.046
843.68	0.045
844.12	0.051
844.55	0.048
844.98	0.049
845.42	0.053
845.85	0.049
846.28	0.044
846.71	0.048
847.15	0.053
847.58	0.050
848.01	0.050
848.45	0.051
848.88	0.053
849.31	0.047
849.74	0.049
850.18	0.050
850.61	0.050
851.04	0.051
851.47	0.048
851.91	0.053
852.34	0.048
852.77	0.048
853.20	0.050
853.64	0.049
854.07	0.051
854.50	0.052
854.93	0.052
855.36	0.050
855.80	0.053
856.23	0.050
856.66	0.053
857.09	0.049
857.52	0.052
857.96	0.047
858.39	0.054
858.82	0.046
859.25	0.053
859.68	0.052
860.12	0.049
860.55	0.051
860.98	0.052
861.41	0.055
861.84	0.058
862.27	0.048
862.71	0.051
863.14	0.056
863.57	0.052
864.00	0.050
864.43	0.052
864.86	0.053
865.30	0.052
865.73	0.055
866.16	0.058
866.59	0.052
867.02	0.051
867.45	0.050
867.88	0.059
868.31	0.056
868.75	0.055
869.18	0.056
869.61	0.055
870.04	0.054
870.47	0.060
870.90	0.053
871.33	0.054
871.76	0.057
872.19	0.053
872.62	0.052
873.06	0.052
873.49	0.055
873.92	0.061
874.35	0.056
874.78	0.055
875.21	0.058
875.64	0.048
876.07	0.057
876.50	0.055
876.93	0.058
877.36	0.061
877.79	0.054
878.22	0.054
878.65	0.059
879.08	0.060
879.51	0.064
879.94	0.056
880.37	0.060
880.80	0.067
881.23	0.051
881.67	0.059
882.10	0.059
882.53	0.056
882.96	0.062
883.39	0.060
883.82	0.056
884.25	0.056
884.68	0.063
885.11	0.062
885.54	0.062
885.97	0.059
886.39	0.058
886.82	0.060
887.25	0.060
887.68	0.062
888.11	0.058
888.54	0.060
888.97	0.060
889.40	0.061
889.83	0.062
890.26	0.060
890.69	0.062
891.12	0.063
891.55	0.060
891.98	0.059
892.41	0.060
892.84	0.066
893.27	0.062
893.70	0.061
894.13	0.065
894.56	0.065
894.98	0.067
895.41	0.067
895.84	0.070
896.27	0.062
896.70	0.063
897.13	0.069
897.56	0.066
897.99	0.063
898.42	0.063
898.85	0.067
899.27	0.062
899.70	0.065
900.13	0.068
900.56	0.068
900.99	0.063
901.42	0.066
901.85	0.069
902.28	0.068
902.70	0.066
903.13	0.070
903.56	0.066
903.99	0.064
904.42	0.066
904.85	0.068
905.27	0.065
905.70	0.065
906.13	0.068
906.56	0.066
906.99	0.069
907.42	0.063
907.84	0.065
908.27	0.067
908.70	0.074
909.13	0.067
909.56	0.066
909.98	0.070
910.41	0.069
910.84	0.067
911.27	0.072
911.70	0.064
912.12	0.065
912.55	0.067
912.98	0.068
913.41	0.066
913.84	0.067
914.26	0.066
914.69	0.065
915.12	0.063
915.55	0.065
915.97	0.067
916.40	0.069
916.83	0.068
917.26	0.070
917.68	0.071
918.11	0.070
918.54	0.065
918.97	0.068
919.39	0.065
919.82	0.069
920.25	0.066
920.67	0.069
921.10	0.071
921.53	0.072
921.96	0.072
922.38	0.071
922.81	0.071
923.24	0.072
923.66	0.072
924.09	0.074
924.52	0.073
924.94	0.073
925.37	0.078
925.80	0.074
926.22	0.072
926.65	0.075
927.08	0.075
927.50	0.078
927.93	0.078
928.36	0.073
928.78	0.081
929.21	0.076
929.64	0.082
930.06	0.086
930.49	0.083
930.92	0.086
931.34	0.083
931.77	0.083
932.20	0.084
932.62	0.084
933.05	0.086
933.47	0.087
933.90	0.086
934.33	0.086
934.75	0.092
935.18	0.091
935.61	0.094
936.03	0.089
936.46	0.094
936.88	0.100
937.31	0.099
937.73	0.098
938.16	0.096
938.59	0.102
939.01	0.106
939.44	0.108
939.86	0.105
940.29	0.110
940.71	0.108
941.14	0.113
941.57	0.114
941.99	0.113
942.42	0.122
942.84	0.119
943.27	0.123
943.69	0.129
944.12	0.127
944.54	0.127
944.97	0.120
945.39	0.124
945.82	0.127
946.24	0.139
946.67	0.132
947.09	0.135
947.52	0.134
947.94	0.143
948.37	0.136
948.79	0.146
949.22	0.150
949.64	0.144
950.07	0.158
950.49	0.153
950.92	0.157
951.34	0.159
951.77	0.159
952.19	0.155
952.62	0.166
953.04	0.171
953.47	0.176
953.89	0.176
954.32	0.181
954.74	0.177
955.17	0.179
955.59	0.190
956.01	0.190
956.44	0.194
956.86	0.195
957.29	0.201
957.71	0.206
958.14	0.202
958.56	0.200
958.98	0.203
959.41	0.207
959.83	0.208
960.26	0.208
960.68	0.217
961.10	0.210
961.53	0.209
961.95	0.218
962.38	0.222
962.80	0.215
963.22	0.217
963.65	0.223
964.07	0.223
964.50	0.222
964.92	0.222
965.34	0.224
965.77	0.225
966.19	0.228
966.61	0.227
967.04	0.232
967.46	0.223
967.88	0.234
968.31	0.226
968.73	0.228
969.15	0.221
969.58	0.226
970.00	0.232
970.42	0.231
970.85	0.224
971.27	0.228
971.69	0.227
972.12	0.229
972.54	0.232
972.96	0.236
973.39	0.231
973.81	0.232
974.23	0.235
974.65	0.228
975.08	0.233
975.50	0.231
975.92	0.236
976.35	0.238
976.77	0.234
977.19	0.234
977.61	0.234
978.04	0.228
978.46	0.238
978.88	0.232
979.30	0.235
979.73	0.231
980.15	0.238
980.57	0.239
980.99	0.234
981.42	0.235
981.84	0.239
982.26	0.237
982.68	0.237
983.11	0.232
983.53	0.227
983.95	0.235
984.37	0.222
984.79	0.228
985.22	0.230
985.64	0.232
986.06	0.227
986.48	0.230
986.90	0.233
987.33	0.222
987.75	0.229
988.17	0.225
988.59	0.228
989.01	0.221
989.43	0.223
989.86	0.222
990.28	0.226
990.70	0.222
991.12	0.226
991.54	0.231
991.96	0.219
992.39	0.220
992.81	0.221
993.23	0.232
993.65	0.218
994.07	0.220
994.49	0.224
994.91	0.229
995.34	0.213
995.76	0.216
996.18	0.225
996.60	0.216
997.02	0.220
997.44	0.213
997.86	0.220
998.28	0.210
998.70	0.205
999.12	0.213
999.55	0.208
999.97	0.205
1000.39	0.205
1000.81	0.212
1001.23	0.203
1001.65	0.204
1002.07	0.213
1002.49	0.207
1002.91	0.199
1003.33	0.204
1003.75	0.201
1004.17	0.200
1004.59	0.189
1005.01	0.201
1005.43	0.200
1005.85	0.193
1006.28	0.199
1006.70	0.194
1007.12	0.199
1007.54	0.200
1007.96	0.201
1008.38	0.194
1008.80	0.193
1009.22	0.192
1009.64	0.190
1010.06	0.183
1010.48	0.194
1010.90	0.193
1011.32	0.189
1011.74	0.183
1012.16	0.184
1012.58	0.185
1013.00	0.184
1013.42	0.177
1013.84	0.179
1014.26	0.173
1014.67	0.181
1015.09	0.171
1015.51	0.178
1015.93	0.179
1016.35	0.175
1016.77	0.181
1017.19	0.177
1017.61	0.167
1018.03	0.175
1018.45	0.171
1018.87	0.178
1019.29	0.176
1019.71	0.171
1020.13	0.160
1020.55	0.163
1020.97	0.160
1021.38	0.159
1021.80	0.152
1022.22	0.170
1022.64	0.164
1023.06	0.165
1023.48	0.160
1023.90	0.163
1024.32	0.150
1024.74	0.157
1025.15	0.163
1025.57	0.153
1025.99	0.147
1026.41	0.167
1026.83	0.154
1027.25	0.145
1027.67	0.155
1028.08	0.156
1028.50	0.156
1028.92	0.146
1029.34	0.141
1029.76	0.155
1030.18	0.134
1030.60	0.156
1031.01	0.151
1031.43	0.150
1031.85	0.141
1032.27	0.154
1032.69	0.141
1033.10	0.141
1033.52	0.142
1033.94	0.129
1034.36	0.142
1034.78	0.135
1035.19	0.148
1035.61	0.130
1036.03	0.144
1036.45	0.133
1036.87	0.129
1037.28	0.123
1037.70	0.127
1038.12	0.120
1038.54	0.128
1038.95	0.120
1039.37	0.117
1039.79	0.121
1040.21	0.121
1040.62	0.134
1041.04	0.128
1041.46	0.127
1041.88	0.132
1042.29	0.125
1042.71	0.123
1043.13	0.143
1043.55	0.113
1043.96	0.121
1044.38	0.123
1044.80	0.130
1045.21	0.118
1045.63	0.115
1046.05	0.113
1046.47	0.130
1046.88	0.113
1047.30	0.129
1047.72	0.115
1048.13	0.100
1048.55	0.109
1048.97	0.112
1049.38	0.144
1049.80	0.102
1050.22	0.134
1050.63	0.112
1051.05	0.147
1051.47	0.087
1051.88	0.107
1052.30	0.137
1052.72	0.131
1053.13	0.118
1053.55	0.117
1053.97	0.117
1054.38	0.101
1054.80	0.127
1055.21	0.120
1055.63	0.104
1056.05	0.099
1056.46	0.121
1056.88	0.147
1057.29	0.104
1057.71	0.118
1058.13	0.129
1058.54	0.138
1058.96	0.104
1059.37	0.135
1059.79	0.138
1060.21	0.118
1060.62	0.124
1061.04	0.108
1061.45	0.141
1061.87	0.121
1062.28	0.109
1062.70	0.144
1063.12	0.124
1063.53	0.076
1063.95	0.161
1064.36	0.138
1064.78	0.170
1065.19	0.104
1065.61	0.143
1066.02	0.193
1066.44	0.097
1066.85	0.112
1067.27	0.139
1067.68	0.158
1068.10	0.102
1068.51	0.147
1068.93	0.166
1069.35	0.211
1069.76	0.128
1070.17	0.168
1070.59	0.188
1071.00	0.174
1071.42	0.140
1071.83	0.210
1072.25	0.146
1072.66	0.077
1073.08	0.142
1073.49	0.213
1073.91	0.155
1074.32	0.203
1074.74	0.182
1075.15	0.231
1075.57	0.137
1075.98	0.354
1076.40	0.195
1076.81	0.324
1077.22	0.078
1077.64	0.197
1078.05	0.256
1078.47	0.151
1078.88	0.294
1079.30	0.373
1079.71	-0.000
1080.12	0.287
1080.54	0.414
1080.95	0.590
1081.37	0.719
1081.78	0.147
1082.19	0.313
1082.61	0.767
1083.02	0.475
1083.44	0.571
1083.85	0.374
1084.26	0.527
1084.68	0.248
1085.09	0.523
1085.50	0.322
1085.92	1.060
1086.33	0.490
1086.74	0.390
1087.16	-0.000
1087.57	0.324
1087.98	0.238
1088.40	0.384
1088.81	1.340
1089.22	0.083
1089.64	0.353
1090.05	-0.000
1090.46	0.925
1090.88	0.234
1091.29	0.425
1091.70	-0.000
1092.12	0.925
1092.53	-0.000
1092.94	-0.000
1093.36	0.604
1093.77	0.493
1094.18	1.014
1094.59	0.821
1095.01	-0.000
1095.42	0.318
1095.83	0.937
1096.25	-0.000
1096.66	0.377
1097.07	1.261
1097.48	1.169
1097.90	1.146
1098.31	0.413
1098.72	1.699
1099.13	0.824
>>>>>End Processed Spectral Data<<<<<
