SpectraSuite Data File
++++++++++++++++++++++++++++++++++++
Date: Sun Apr 24 15:46:45 CEST 2016
User: spectrasuite
Dark Spectrum Present: Yes
Reference Spectrum Present: Yes
Number of Sampled Component Spectra: 1
Spectrometers: HR+C0708
Integration Time (usec): 1000 (HR+C0708)
Spectra Averaged: 10 (HR+C0708)
Boxcar Smoothing: 0 (HR+C0708)
Correct for Electrical Dark: No (HR+C0708)
Strobe/Lamp Enabled: No (HR+C0708)
Correct for Detector Non-linearity: No (HR+C0708)
Correct for Stray Light: No (HR+C0708)
Number of Pixels in Processed Spectrum: 2048
>>>>>Begin Processed Spectral Data<<<<<
188.76	-0.000
189.23	-0.000
189.70	-0.000
190.17	-0.000
190.64	-0.000
191.12	-0.000
191.59	-0.000
192.06	-0.000
192.53	-0.000
193.01	-0.000
193.48	-0.000
193.95	-0.000
194.42	-0.000
194.90	-0.000
195.37	-0.000
195.84	-0.000
196.31	-0.000
196.78	-0.000
197.26	-0.000
197.73	-0.000
198.20	-0.000
198.67	-0.000
199.14	0.764
199.62	-0.000
200.09	-0.000
200.56	-0.000
201.03	-0.000
201.50	0.710
201.97	-0.000
202.45	-0.000
202.92	0.750
203.39	1.246
203.86	1.458
204.33	-0.000
204.80	-0.000
205.28	-0.000
205.75	2.117
206.22	-0.000
206.69	-0.000
207.16	-0.000
207.63	1.209
208.11	0.905
208.58	1.741
209.05	1.236
209.52	-0.000
209.99	-0.000
210.46	2.111
210.93	-0.000
211.41	0.972
211.88	2.002
212.35	-0.000
212.82	-0.000
213.29	1.066
213.76	-0.000
214.23	-0.000
214.70	-0.000
215.18	-0.000
215.65	1.296
216.12	0.802
216.59	-0.000
217.06	-0.000
217.53	1.359
218.00	1.822
218.47	1.071
218.94	1.748
219.41	-0.000
219.89	-0.000
220.36	-0.000
220.83	-0.000
221.30	-0.000
221.77	1.412
222.24	-0.000
222.71	1.545
223.18	-0.000
223.65	-0.000
224.12	-0.000
224.59	-0.000
225.06	-0.000
225.54	2.161
226.01	1.008
226.48	1.296
226.95	-0.000
227.42	2.349
227.89	-0.000
228.36	1.833
228.83	-0.000
229.30	1.772
229.77	2.409
230.24	1.599
230.71	-0.000
231.18	1.892
231.65	1.879
232.12	2.084
232.59	-0.000
233.06	-0.000
233.53	-0.000
234.00	2.034
234.47	-0.000
234.94	-0.000
235.41	2.269
235.88	-0.000
236.35	2.607
236.82	2.478
237.29	2.605
237.76	-0.000
238.23	2.546
238.70	-0.000
239.17	2.362
239.64	2.926
240.11	-0.000
240.58	2.862
241.05	2.981
241.52	2.636
241.99	-0.000
242.46	2.833
242.93	2.884
243.40	3.105
243.87	2.703
244.34	2.904
244.81	2.975
245.28	-0.000
245.75	-0.000
246.22	-0.000
246.69	3.355
247.16	3.842
247.63	-0.000
248.10	-0.000
248.57	3.076
249.04	-0.000
249.51	4.228
249.98	-0.000
250.45	-0.000
250.92	3.065
251.39	-0.000
251.85	3.633
252.32	-0.000
252.79	-0.000
253.26	2.939
253.73	-0.000
254.20	-0.000
254.67	3.285
255.14	2.872
255.61	-0.000
256.08	3.631
256.55	-0.000
257.02	3.916
257.49	3.366
257.95	3.055
258.42	2.907
258.89	2.859
259.36	2.935
259.83	3.730
260.30	-0.000
260.77	-0.000
261.24	2.896
261.71	3.258
262.17	3.484
262.64	2.844
263.11	3.053
263.58	-0.000
264.05	3.726
264.52	3.005
264.99	2.974
265.46	2.872
265.92	-0.000
266.39	3.279
266.86	3.162
267.33	3.361
267.80	2.793
268.27	3.374
268.74	3.074
269.20	2.926
269.67	3.058
270.14	2.642
270.61	2.901
271.08	2.852
271.55	2.717
272.01	2.661
272.48	2.744
272.95	2.564
273.42	2.767
273.89	2.725
274.36	2.568
274.82	2.644
275.29	2.621
275.76	2.536
276.23	2.574
276.70	2.579
277.16	2.518
277.63	2.538
278.10	2.530
278.57	2.548
279.04	2.415
279.50	2.472
279.97	2.476
280.44	2.358
280.91	2.386
281.38	2.327
281.84	2.432
282.31	2.409
282.78	2.648
283.25	2.327
283.72	2.333
284.18	2.365
284.65	2.322
285.12	2.295
285.59	2.226
286.05	2.318
286.52	2.275
286.99	2.246
287.46	2.247
287.92	2.274
288.39	2.227
288.86	2.258
289.33	2.190
289.79	2.244
290.26	2.253
290.73	2.187
291.20	2.262
291.66	2.250
292.13	2.181
292.60	2.139
293.07	2.150
293.53	2.104
294.00	2.165
294.47	2.154
294.93	2.130
295.40	2.121
295.87	2.100
296.34	2.122
296.80	2.076
297.27	2.078
297.74	2.038
298.20	2.126
298.67	2.016
299.14	2.039
299.60	2.059
300.07	2.025
300.54	2.025
301.01	2.010
301.47	1.960
301.94	1.969
302.41	1.977
302.87	1.996
303.34	2.010
303.81	1.923
304.27	1.937
304.74	1.957
305.21	1.927
305.67	1.915
306.14	1.903
306.61	1.916
307.07	1.892
307.54	1.884
308.01	1.911
308.47	1.911
308.94	1.932
309.40	1.884
309.87	1.882
310.34	1.869
310.80	1.862
311.27	1.842
311.74	1.846
312.20	1.840
312.67	1.808
313.13	1.821
313.60	1.834
314.07	1.823
314.53	1.794
315.00	1.817
315.47	1.822
315.93	1.797
316.40	1.782
316.86	1.789
317.33	1.791
317.80	1.765
318.26	1.758
318.73	1.792
319.19	1.761
319.66	1.738
320.13	1.738
320.59	1.746
321.06	1.748
321.52	1.740
321.99	1.728
322.45	1.717
322.92	1.703
323.39	1.701
323.85	1.696
324.32	1.705
324.78	1.695
325.25	1.702
325.71	1.669
326.18	1.641
326.64	1.682
327.11	1.649
327.58	1.625
328.04	1.632
328.51	1.628
328.97	1.638
329.44	1.600
329.90	1.593
330.37	1.606
330.83	1.569
331.30	1.574
331.76	1.562
332.23	1.539
332.69	1.543
333.16	1.511
333.62	1.499
334.09	1.501
334.56	1.491
335.02	1.475
335.49	1.471
335.95	1.439
336.42	1.412
336.88	1.415
337.35	1.403
337.81	1.389
338.28	1.368
338.74	1.357
339.20	1.333
339.67	1.316
340.13	1.309
340.60	1.284
341.06	1.266
341.53	1.249
341.99	1.232
342.46	1.208
342.92	1.186
343.39	1.180
343.85	1.155
344.32	1.138
344.78	1.115
345.25	1.114
345.71	1.096
346.17	1.075
346.64	1.052
347.10	1.040
347.57	1.003
348.03	0.988
348.50	0.976
348.96	0.953
349.43	0.944
349.89	0.921
350.35	0.902
350.82	0.893
351.28	0.883
351.75	0.859
352.21	0.844
352.67	0.834
353.14	0.826
353.60	0.805
354.07	0.791
354.53	0.780
355.00	0.771
355.46	0.758
355.92	0.740
356.39	0.729
356.85	0.727
357.31	0.724
357.78	0.711
358.24	0.703
358.71	0.695
359.17	0.682
359.63	0.678
360.10	0.673
360.56	0.673
361.03	0.667
361.49	0.657
361.95	0.653
362.42	0.653
362.88	0.642
363.34	0.640
363.81	0.636
364.27	0.630
364.73	0.628
365.20	0.630
365.66	0.623
366.12	0.620
366.59	0.616
367.05	0.617
367.51	0.609
367.98	0.606
368.44	0.600
368.90	0.603
369.37	0.600
369.83	0.598
370.29	0.597
370.76	0.591
371.22	0.590
371.68	0.585
372.15	0.583
372.61	0.578
373.07	0.578
373.54	0.579
374.00	0.584
374.46	0.579
374.92	0.573
375.39	0.572
375.85	0.570
376.31	0.568
376.78	0.565
377.24	0.565
377.70	0.567
378.16	0.559
378.63	0.558
379.09	0.559
379.55	0.559
380.01	0.553
380.48	0.554
380.94	0.550
381.40	0.546
381.87	0.548
382.33	0.546
382.79	0.542
383.25	0.542
383.72	0.541
384.18	0.539
384.64	0.535
385.10	0.534
385.56	0.536
386.03	0.532
386.49	0.531
386.95	0.527
387.41	0.529
387.88	0.528
388.34	0.522
388.80	0.522
389.26	0.521
389.72	0.518
390.19	0.516
390.65	0.518
391.11	0.517
391.57	0.513
392.04	0.514
392.50	0.512
392.96	0.509
393.42	0.508
393.88	0.510
394.34	0.504
394.81	0.502
395.27	0.502
395.73	0.505
396.19	0.500
396.65	0.496
397.12	0.495
397.58	0.494
398.04	0.493
398.50	0.491
398.96	0.491
399.42	0.494
399.89	0.491
400.35	0.486
400.81	0.485
401.27	0.487
401.73	0.484
402.19	0.480
402.65	0.480
403.12	0.480
403.58	0.476
404.04	0.478
404.50	0.476
404.96	0.474
405.42	0.475
405.88	0.469
406.34	0.472
406.81	0.469
407.27	0.469
407.73	0.467
408.19	0.463
408.65	0.466
409.11	0.461
409.57	0.465
410.03	0.458
410.49	0.461
410.96	0.457
411.42	0.458
411.88	0.454
412.34	0.452
412.80	0.454
413.26	0.449
413.72	0.449
414.18	0.448
414.64	0.448
415.10	0.448
415.56	0.444
416.02	0.446
416.48	0.446
416.95	0.443
417.41	0.445
417.87	0.437
418.33	0.438
418.79	0.437
419.25	0.438
419.71	0.437
420.17	0.434
420.63	0.433
421.09	0.431
421.55	0.430
422.01	0.434
422.47	0.432
422.93	0.433
423.39	0.429
423.85	0.429
424.31	0.423
424.77	0.424
425.23	0.427
425.69	0.424
426.15	0.422
426.61	0.421
427.07	0.417
427.53	0.419
427.99	0.414
428.45	0.418
428.91	0.415
429.37	0.415
429.83	0.413
430.29	0.413
430.75	0.412
431.21	0.414
431.67	0.410
432.13	0.410
432.59	0.405
433.05	0.407
433.51	0.405
433.97	0.405
434.43	0.405
434.89	0.408
435.35	0.403
435.81	0.401
436.27	0.399
436.73	0.396
437.19	0.398
437.65	0.402
438.11	0.395
438.57	0.398
439.03	0.395
439.48	0.396
439.94	0.391
440.40	0.392
440.86	0.395
441.32	0.387
441.78	0.393
442.24	0.386
442.70	0.387
443.16	0.386
443.62	0.381
444.08	0.385
444.54	0.384
444.99	0.382
445.45	0.379
445.91	0.378
446.37	0.385
446.83	0.381
447.29	0.378
447.75	0.376
448.21	0.384
448.67	0.377
449.12	0.378
449.58	0.378
450.04	0.374
450.50	0.375
450.96	0.374
451.42	0.371
451.88	0.370
452.34	0.369
452.79	0.372
453.25	0.372
453.71	0.364
454.17	0.368
454.63	0.372
455.09	0.368
455.55	0.364
456.00	0.360
456.46	0.361
456.92	0.360
457.38	0.362
457.84	0.360
458.30	0.357
458.75	0.359
459.21	0.354
459.67	0.358
460.13	0.359
460.59	0.355
461.04	0.352
461.50	0.355
461.96	0.350
462.42	0.353
462.88	0.352
463.33	0.350
463.79	0.349
464.25	0.349
464.71	0.349
465.17	0.348
465.62	0.347
466.08	0.345
466.54	0.346
467.00	0.345
467.46	0.345
467.91	0.345
468.37	0.343
468.83	0.343
469.29	0.340
469.74	0.341
470.20	0.340
470.66	0.341
471.12	0.337
471.57	0.338
472.03	0.337
472.49	0.334
472.95	0.338
473.40	0.333
473.86	0.333
474.32	0.333
474.78	0.333
475.23	0.332
475.69	0.335
476.15	0.331
476.60	0.332
477.06	0.329
477.52	0.328
477.98	0.326
478.43	0.325
478.89	0.326
479.35	0.325
479.80	0.329
480.26	0.326
480.72	0.323
481.18	0.325
481.63	0.322
482.09	0.322
482.55	0.326
483.00	0.318
483.46	0.321
483.92	0.320
484.37	0.318
484.83	0.316
485.29	0.318
485.74	0.316
486.20	0.315
486.66	0.312
487.11	0.315
487.57	0.314
488.03	0.315
488.48	0.313
488.94	0.311
489.40	0.313
489.85	0.312
490.31	0.312
490.77	0.312
491.22	0.310
491.68	0.307
492.13	0.309
492.59	0.307
493.05	0.306
493.50	0.306
493.96	0.306
494.42	0.305
494.87	0.303
495.33	0.302
495.78	0.304
496.24	0.305
496.70	0.301
497.15	0.300
497.61	0.302
498.06	0.301
498.52	0.298
498.98	0.295
499.43	0.300
499.89	0.299
500.34	0.296
500.80	0.295
501.25	0.297
501.71	0.296
502.17	0.297
502.62	0.297
503.08	0.295
503.53	0.294
503.99	0.292
504.44	0.294
504.90	0.293
505.36	0.290
505.81	0.291
506.27	0.291
506.72	0.290
507.18	0.290
507.63	0.288
508.09	0.288
508.54	0.286
509.00	0.288
509.45	0.287
509.91	0.285
510.36	0.289
510.82	0.286
511.27	0.284
511.73	0.287
512.19	0.283
512.64	0.284
513.10	0.283
513.55	0.283
514.01	0.280
514.46	0.282
514.92	0.281
515.37	0.280
515.83	0.281
516.28	0.279
516.73	0.276
517.19	0.277
517.64	0.275
518.10	0.275
518.55	0.274
519.01	0.276
519.46	0.275
519.92	0.276
520.37	0.272
520.83	0.273
521.28	0.273
521.74	0.273
522.19	0.272
522.65	0.272
523.10	0.271
523.55	0.270
524.01	0.274
524.46	0.268
524.92	0.267
525.37	0.268
525.83	0.267
526.28	0.268
526.73	0.268
527.19	0.271
527.64	0.269
528.10	0.266
528.55	0.266
529.01	0.266
529.46	0.266
529.91	0.264
530.37	0.264
530.82	0.264
531.28	0.261
531.73	0.263
532.18	0.260
532.64	0.261
533.09	0.261
533.54	0.260
534.00	0.258
534.45	0.262
534.91	0.260
535.36	0.259
535.81	0.258
536.27	0.256
536.72	0.257
537.17	0.258
537.63	0.258
538.08	0.255
538.54	0.257
538.99	0.254
539.44	0.258
539.90	0.253
540.35	0.253
540.80	0.254
541.26	0.254
541.71	0.253
542.16	0.254
542.62	0.252
543.07	0.252
543.52	0.253
543.98	0.254
544.43	0.250
544.88	0.250
545.34	0.249
545.79	0.249
546.24	0.246
546.69	0.248
547.15	0.247
547.60	0.246
548.05	0.246
548.51	0.245
548.96	0.247
549.41	0.248
549.86	0.244
550.32	0.246
550.77	0.247
551.22	0.243
551.68	0.243
552.13	0.242
552.58	0.241
553.03	0.242
553.49	0.243
553.94	0.243
554.39	0.242
554.84	0.241
555.30	0.241
555.75	0.241
556.20	0.241
556.65	0.239
557.11	0.239
557.56	0.238
558.01	0.241
558.46	0.240
558.92	0.235
559.37	0.235
559.82	0.238
560.27	0.236
560.72	0.235
561.18	0.236
561.63	0.232
562.08	0.232
562.53	0.234
562.99	0.236
563.44	0.232
563.89	0.232
564.34	0.232
564.79	0.233
565.25	0.232
565.70	0.230
566.15	0.233
566.60	0.230
567.05	0.231
567.50	0.229
567.96	0.229
568.41	0.230
568.86	0.228
569.31	0.227
569.76	0.227
570.21	0.227
570.67	0.227
571.12	0.229
571.57	0.225
572.02	0.224
572.47	0.226
572.92	0.223
573.37	0.224
573.83	0.224
574.28	0.225
574.73	0.222
575.18	0.222
575.63	0.223
576.08	0.220
576.53	0.221
576.98	0.220
577.44	0.218
577.89	0.220
578.34	0.219
578.79	0.217
579.24	0.219
579.69	0.220
580.14	0.217
580.59	0.217
581.04	0.215
581.49	0.215
581.95	0.214
582.40	0.217
582.85	0.216
583.30	0.214
583.75	0.213
584.20	0.217
584.65	0.214
585.10	0.213
585.55	0.213
586.00	0.215
586.45	0.211
586.90	0.214
587.35	0.213
587.80	0.211
588.25	0.213
588.71	0.213
589.16	0.210
589.61	0.209
590.06	0.210
590.51	0.212
590.96	0.211
591.41	0.209
591.86	0.211
592.31	0.208
592.76	0.210
593.21	0.209
593.66	0.209
594.11	0.209
594.56	0.207
595.01	0.207
595.46	0.207
595.91	0.207
596.36	0.209
596.81	0.206
597.26	0.206
597.71	0.206
598.16	0.206
598.61	0.205
599.06	0.205
599.51	0.206
599.96	0.207
600.41	0.208
600.86	0.205
601.31	0.203
601.76	0.204
602.21	0.204
602.65	0.204
603.10	0.204
603.55	0.203
604.00	0.203
604.45	0.201
604.90	0.202
605.35	0.200
605.80	0.200
606.25	0.203
606.70	0.199
607.15	0.199
607.60	0.201
608.05	0.197
608.50	0.198
608.95	0.196
609.39	0.201
609.84	0.198
610.29	0.196
610.74	0.198
611.19	0.196
611.64	0.196
612.09	0.197
612.54	0.195
612.99	0.197
613.44	0.195
613.88	0.196
614.33	0.196
614.78	0.194
615.23	0.193
615.68	0.195
616.13	0.194
616.58	0.193
617.03	0.194
617.47	0.194
617.92	0.192
618.37	0.191
618.82	0.193
619.27	0.192
619.72	0.192
620.17	0.190
620.61	0.190
621.06	0.189
621.51	0.191
621.96	0.187
622.41	0.192
622.86	0.190
623.30	0.190
623.75	0.190
624.20	0.189
624.65	0.187
625.10	0.188
625.54	0.188
625.99	0.188
626.44	0.188
626.89	0.187
627.34	0.189
627.78	0.187
628.23	0.185
628.68	0.185
629.13	0.185
629.58	0.186
630.02	0.186
630.47	0.185
630.92	0.185
631.37	0.184
631.81	0.184
632.26	0.183
632.71	0.184
633.16	0.183
633.61	0.182
634.05	0.182
634.50	0.183
634.95	0.182
635.40	0.184
635.84	0.183
636.29	0.183
636.74	0.182
637.18	0.182
637.63	0.182
638.08	0.181
638.53	0.179
638.97	0.179
639.42	0.181
639.87	0.180
640.32	0.178
640.76	0.180
641.21	0.179
641.66	0.178
642.10	0.181
642.55	0.178
643.00	0.177
643.44	0.179
643.89	0.178
644.34	0.179
644.79	0.178
645.23	0.179
645.68	0.177
646.13	0.176
646.57	0.176
647.02	0.175
647.47	0.178
647.91	0.176
648.36	0.178
648.81	0.177
649.25	0.174
649.70	0.175
650.15	0.174
650.59	0.176
651.04	0.173
651.48	0.176
651.93	0.174
652.38	0.174
652.82	0.174
653.27	0.173
653.72	0.175
654.16	0.174
654.61	0.175
655.06	0.173
655.50	0.172
655.95	0.170
656.39	0.168
656.84	0.170
657.29	0.174
657.73	0.172
658.18	0.172
658.62	0.172
659.07	0.171
659.52	0.171
659.96	0.171
660.41	0.171
660.85	0.169
661.30	0.170
661.74	0.168
662.19	0.168
662.64	0.169
663.08	0.168
663.53	0.168
663.97	0.168
664.42	0.168
664.86	0.169
665.31	0.168
665.75	0.168
666.20	0.169
666.65	0.168
667.09	0.169
667.54	0.170
667.98	0.167
668.43	0.168
668.87	0.167
669.32	0.165
669.76	0.165
670.21	0.168
670.65	0.165
671.10	0.166
671.54	0.165
671.99	0.165
672.43	0.164
672.88	0.164
673.32	0.164
673.77	0.163
674.21	0.164
674.66	0.164
675.10	0.162
675.55	0.161
675.99	0.164
676.44	0.162
676.88	0.163
677.33	0.163
677.77	0.163
678.22	0.162
678.66	0.160
679.11	0.162
679.55	0.162
679.99	0.161
680.44	0.164
680.88	0.160
681.33	0.161
681.77	0.160
682.22	0.161
682.66	0.162
683.11	0.161
683.55	0.161
683.99	0.159
684.44	0.156
684.88	0.157
685.33	0.159
685.77	0.157
686.21	0.159
686.66	0.160
687.10	0.157
687.55	0.157
687.99	0.159
688.44	0.159
688.88	0.157
689.32	0.159
689.77	0.154
690.21	0.158
690.65	0.155
691.10	0.157
691.54	0.157
691.99	0.157
692.43	0.155
692.87	0.155
693.32	0.156
693.76	0.157
694.20	0.156
694.65	0.155
695.09	0.155
695.53	0.155
695.98	0.155
696.42	0.155
696.86	0.155
697.31	0.152
697.75	0.151
698.19	0.154
698.64	0.153
699.08	0.154
699.52	0.154
699.97	0.156
700.41	0.154
700.85	0.154
701.30	0.153
701.74	0.153
702.18	0.154
702.63	0.152
703.07	0.153
703.51	0.154
703.96	0.152
704.40	0.153
704.84	0.152
705.28	0.152
705.73	0.151
706.17	0.150
706.61	0.150
707.06	0.152
707.50	0.151
707.94	0.150
708.38	0.151
708.83	0.153
709.27	0.150
709.71	0.150
710.15	0.151
710.60	0.149
711.04	0.148
711.48	0.153
711.92	0.151
712.37	0.150
712.81	0.151
713.25	0.150
713.69	0.150
714.13	0.150
714.58	0.149
715.02	0.149
715.46	0.148
715.90	0.146
716.35	0.148
716.79	0.151
717.23	0.149
717.67	0.147
718.11	0.150
718.56	0.150
719.00	0.151
719.44	0.149
719.88	0.150
720.32	0.147
720.76	0.149
721.21	0.149
721.65	0.148
722.09	0.150
722.53	0.148
722.97	0.149
723.41	0.146
723.86	0.149
724.30	0.147
724.74	0.150
725.18	0.151
725.62	0.146
726.06	0.149
726.50	0.147
726.95	0.146
727.39	0.150
727.83	0.147
728.27	0.146
728.71	0.150
729.15	0.148
729.59	0.149
730.03	0.149
730.48	0.148
730.92	0.148
731.36	0.149
731.80	0.147
732.24	0.148
732.68	0.145
733.12	0.146
733.56	0.147
734.00	0.146
734.44	0.149
734.89	0.146
735.33	0.148
735.77	0.151
736.21	0.148
736.65	0.144
737.09	0.149
737.53	0.148
737.97	0.148
738.41	0.149
738.85	0.150
739.29	0.151
739.73	0.148
740.17	0.148
740.61	0.148
741.05	0.147
741.49	0.148
741.93	0.148
742.37	0.144
742.81	0.145
743.26	0.146
743.70	0.145
744.14	0.148
744.58	0.145
745.02	0.147
745.46	0.145
745.90	0.147
746.34	0.147
746.78	0.144
747.22	0.146
747.66	0.144
748.10	0.145
748.54	0.144
748.98	0.143
749.42	0.144
749.86	0.145
750.29	0.145
750.73	0.143
751.17	0.143
751.61	0.142
752.05	0.146
752.49	0.142
752.93	0.143
753.37	0.145
753.81	0.142
754.25	0.142
754.69	0.142
755.13	0.141
755.57	0.143
756.01	0.143
756.45	0.142
756.89	0.142
757.33	0.143
757.77	0.141
758.21	0.141
758.64	0.141
759.08	0.138
759.52	0.141
759.96	0.144
760.40	0.143
760.84	0.141
761.28	0.140
761.72	0.143
762.16	0.142
762.60	0.139
763.03	0.141
763.47	0.140
763.91	0.142
764.35	0.138
764.79	0.138
765.23	0.136
765.67	0.137
766.11	0.137
766.54	0.139
766.98	0.139
767.42	0.139
767.86	0.136
768.30	0.140
768.74	0.140
769.17	0.140
769.61	0.137
770.05	0.139
770.49	0.137
770.93	0.140
771.37	0.137
771.80	0.140
772.24	0.138
772.68	0.134
773.12	0.135
773.56	0.136
774.00	0.135
774.43	0.137
774.87	0.136
775.31	0.134
775.75	0.135
776.19	0.136
776.62	0.134
777.06	0.137
777.50	0.136
777.94	0.134
778.37	0.132
778.81	0.137
779.25	0.137
779.69	0.136
780.13	0.136
780.56	0.135
781.00	0.136
781.44	0.134
781.88	0.136
782.31	0.136
782.75	0.136
783.19	0.137
783.63	0.132
784.06	0.134
784.50	0.136
784.94	0.134
785.37	0.133
785.81	0.136
786.25	0.135
786.69	0.131
787.12	0.136
787.56	0.133
788.00	0.132
788.43	0.136
788.87	0.131
789.31	0.132
789.75	0.133
790.18	0.130
790.62	0.135
791.06	0.132
791.49	0.130
791.93	0.128
792.37	0.134
792.80	0.127
793.24	0.130
793.68	0.133
794.11	0.134
794.55	0.133
794.99	0.134
795.42	0.132
795.86	0.134
796.30	0.132
796.73	0.133
797.17	0.132
797.61	0.129
798.04	0.130
798.48	0.129
798.91	0.128
799.35	0.128
799.79	0.133
800.22	0.138
800.66	0.128
801.10	0.133
801.53	0.130
801.97	0.135
802.40	0.131
802.84	0.133
803.28	0.129
803.71	0.134
804.15	0.128
804.58	0.131
805.02	0.133
805.46	0.128
805.89	0.130
806.33	0.128
806.76	0.128
807.20	0.130
807.63	0.132
808.07	0.130
808.51	0.127
808.94	0.125
809.38	0.128
809.81	0.131
810.25	0.126
810.68	0.133
811.12	0.126
811.55	0.131
811.99	0.128
812.42	0.129
812.86	0.125
813.29	0.128
813.73	0.126
814.17	0.126
814.60	0.132
815.04	0.127
815.47	0.127
815.91	0.127
816.34	0.126
816.78	0.126
817.21	0.133
817.65	0.130
818.08	0.125
818.52	0.128
818.95	0.128
819.39	0.127
819.82	0.129
820.25	0.129
820.69	0.129
821.12	0.128
821.56	0.126
821.99	0.129
822.43	0.126
822.86	0.126
823.30	0.131
823.73	0.126
824.17	0.128
824.60	0.127
825.04	0.127
825.47	0.127
825.90	0.125
826.34	0.126
826.77	0.126
827.21	0.130
827.64	0.127
828.08	0.129
828.51	0.128
828.94	0.124
829.38	0.125
829.81	0.130
830.25	0.130
830.68	0.132
831.11	0.129
831.55	0.130
831.98	0.132
832.42	0.130
832.85	0.131
833.28	0.134
833.72	0.133
834.15	0.129
834.58	0.131
835.02	0.129
835.45	0.133
835.88	0.131
836.32	0.136
836.75	0.132
837.19	0.132
837.62	0.134
838.05	0.132
838.49	0.134
838.92	0.131
839.35	0.132
839.79	0.132
840.22	0.129
840.65	0.132
841.09	0.133
841.52	0.129
841.95	0.132
842.39	0.131
842.82	0.131
843.25	0.129
843.68	0.135
844.12	0.133
844.55	0.130
844.98	0.126
845.42	0.131
845.85	0.127
846.28	0.132
846.71	0.129
847.15	0.136
847.58	0.135
848.01	0.132
848.45	0.137
848.88	0.134
849.31	0.131
849.74	0.132
850.18	0.126
850.61	0.136
851.04	0.132
851.47	0.138
851.91	0.133
852.34	0.132
852.77	0.131
853.20	0.130
853.64	0.131
854.07	0.136
854.50	0.135
854.93	0.136
855.36	0.133
855.80	0.129
856.23	0.130
856.66	0.136
857.09	0.131
857.52	0.133
857.96	0.130
858.39	0.134
858.82	0.130
859.25	0.134
859.68	0.129
860.12	0.129
860.55	0.130
860.98	0.132
861.41	0.126
861.84	0.133
862.27	0.126
862.71	0.132
863.14	0.134
863.57	0.127
864.00	0.131
864.43	0.141
864.86	0.134
865.30	0.135
865.73	0.133
866.16	0.131
866.59	0.135
867.02	0.131
867.45	0.136
867.88	0.135
868.31	0.134
868.75	0.133
869.18	0.133
869.61	0.132
870.04	0.139
870.47	0.132
870.90	0.131
871.33	0.129
871.76	0.135
872.19	0.139
872.62	0.131
873.06	0.126
873.49	0.135
873.92	0.136
874.35	0.132
874.78	0.134
875.21	0.134
875.64	0.129
876.07	0.136
876.50	0.140
876.93	0.138
877.36	0.135
877.79	0.137
878.22	0.130
878.65	0.139
879.08	0.132
879.51	0.138
879.94	0.132
880.37	0.137
880.80	0.139
881.23	0.133
881.67	0.138
882.10	0.141
882.53	0.131
882.96	0.139
883.39	0.130
883.82	0.135
884.25	0.135
884.68	0.137
885.11	0.137
885.54	0.142
885.97	0.138
886.39	0.134
886.82	0.133
887.25	0.134
887.68	0.133
888.11	0.130
888.54	0.132
888.97	0.137
889.40	0.134
889.83	0.137
890.26	0.134
890.69	0.137
891.12	0.137
891.55	0.136
891.98	0.135
892.41	0.131
892.84	0.136
893.27	0.138
893.70	0.141
894.13	0.138
894.56	0.136
894.98	0.140
895.41	0.139
895.84	0.142
896.27	0.133
896.70	0.139
897.13	0.143
897.56	0.137
897.99	0.134
898.42	0.135
898.85	0.143
899.27	0.138
899.70	0.141
900.13	0.136
900.56	0.139
900.99	0.140
901.42	0.140
901.85	0.138
902.28	0.139
902.70	0.135
903.13	0.142
903.56	0.143
903.99	0.137
904.42	0.137
904.85	0.139
905.27	0.138
905.70	0.138
906.13	0.136
906.56	0.139
906.99	0.140
907.42	0.140
907.84	0.132
908.27	0.140
908.70	0.140
909.13	0.142
909.56	0.137
909.98	0.140
910.41	0.141
910.84	0.136
911.27	0.142
911.70	0.137
912.12	0.138
912.55	0.133
912.98	0.140
913.41	0.137
913.84	0.142
914.26	0.136
914.69	0.139
915.12	0.138
915.55	0.134
915.97	0.141
916.40	0.139
916.83	0.135
917.26	0.137
917.68	0.138
918.11	0.138
918.54	0.135
918.97	0.139
919.39	0.140
919.82	0.139
920.25	0.137
920.67	0.137
921.10	0.142
921.53	0.142
921.96	0.142
922.38	0.140
922.81	0.137
923.24	0.141
923.66	0.140
924.09	0.143
924.52	0.145
924.94	0.143
925.37	0.146
925.80	0.146
926.22	0.144
926.65	0.143
927.08	0.144
927.50	0.142
927.93	0.148
928.36	0.144
928.78	0.149
929.21	0.146
929.64	0.150
930.06	0.156
930.49	0.149
930.92	0.149
931.34	0.153
931.77	0.153
932.20	0.153
932.62	0.150
933.05	0.153
933.47	0.158
933.90	0.157
934.33	0.151
934.75	0.157
935.18	0.158
935.61	0.161
936.03	0.158
936.46	0.161
936.88	0.163
937.31	0.164
937.73	0.167
938.16	0.163
938.59	0.170
939.01	0.174
939.44	0.175
939.86	0.177
940.29	0.175
940.71	0.179
941.14	0.182
941.57	0.180
941.99	0.180
942.42	0.190
942.84	0.188
943.27	0.196
943.69	0.191
944.12	0.190
944.54	0.201
944.97	0.191
945.39	0.197
945.82	0.195
946.24	0.203
946.67	0.201
947.09	0.209
947.52	0.202
947.94	0.204
948.37	0.204
948.79	0.210
949.22	0.211
949.64	0.214
950.07	0.227
950.49	0.221
950.92	0.220
951.34	0.225
951.77	0.231
952.19	0.227
952.62	0.235
953.04	0.241
953.47	0.237
953.89	0.246
954.32	0.245
954.74	0.250
955.17	0.246
955.59	0.256
956.01	0.254
956.44	0.257
956.86	0.262
957.29	0.260
957.71	0.275
958.14	0.266
958.56	0.266
958.98	0.274
959.41	0.274
959.83	0.273
960.26	0.272
960.68	0.280
961.10	0.283
961.53	0.283
961.95	0.280
962.38	0.287
962.80	0.278
963.22	0.286
963.65	0.286
964.07	0.287
964.50	0.291
964.92	0.287
965.34	0.288
965.77	0.284
966.19	0.292
966.61	0.290
967.04	0.294
967.46	0.292
967.88	0.294
968.31	0.291
968.73	0.292
969.15	0.293
969.58	0.291
970.00	0.292
970.42	0.289
970.85	0.289
971.27	0.289
971.69	0.294
972.12	0.299
972.54	0.300
972.96	0.299
973.39	0.302
973.81	0.296
974.23	0.296
974.65	0.289
975.08	0.295
975.50	0.297
975.92	0.292
976.35	0.299
976.77	0.291
977.19	0.296
977.61	0.291
978.04	0.295
978.46	0.302
978.88	0.302
979.30	0.302
979.73	0.295
980.15	0.301
980.57	0.300
980.99	0.296
981.42	0.300
981.84	0.306
982.26	0.294
982.68	0.297
983.11	0.299
983.53	0.290
983.95	0.294
984.37	0.291
984.79	0.291
985.22	0.295
985.64	0.289
986.06	0.289
986.48	0.297
986.90	0.290
987.33	0.288
987.75	0.284
988.17	0.284
988.59	0.290
989.01	0.287
989.43	0.281
989.86	0.288
990.28	0.286
990.70	0.282
991.12	0.285
991.54	0.292
991.96	0.280
992.39	0.286
992.81	0.282
993.23	0.284
993.65	0.283
994.07	0.280
994.49	0.278
994.91	0.281
995.34	0.267
995.76	0.277
996.18	0.280
996.60	0.275
997.02	0.282
997.44	0.280
997.86	0.278
998.28	0.275
998.70	0.278
999.12	0.274
999.55	0.268
999.97	0.270
1000.39	0.272
1000.81	0.270
1001.23	0.264
1001.65	0.272
1002.07	0.271
1002.49	0.274
1002.91	0.268
1003.33	0.259
1003.75	0.256
1004.17	0.264
1004.59	0.252
1005.01	0.258
1005.43	0.263
1005.85	0.261
1006.28	0.263
1006.70	0.254
1007.12	0.254
1007.54	0.253
1007.96	0.252
1008.38	0.265
1008.80	0.253
1009.22	0.248
1009.64	0.256
1010.06	0.251
1010.48	0.263
1010.90	0.257
1011.32	0.243
1011.74	0.243
1012.16	0.253
1012.58	0.248
1013.00	0.243
1013.42	0.233
1013.84	0.239
1014.26	0.239
1014.67	0.240
1015.09	0.239
1015.51	0.250
1015.93	0.243
1016.35	0.237
1016.77	0.244
1017.19	0.243
1017.61	0.240
1018.03	0.241
1018.45	0.232
1018.87	0.235
1019.29	0.232
1019.71	0.231
1020.13	0.224
1020.55	0.242
1020.97	0.225
1021.38	0.231
1021.80	0.231
1022.22	0.230
1022.64	0.218
1023.06	0.212
1023.48	0.226
1023.90	0.215
1024.32	0.209
1024.74	0.217
1025.15	0.229
1025.57	0.217
1025.99	0.222
1026.41	0.216
1026.83	0.208
1027.25	0.222
1027.67	0.222
1028.08	0.216
1028.50	0.211
1028.92	0.200
1029.34	0.216
1029.76	0.226
1030.18	0.203
1030.60	0.220
1031.01	0.219
1031.43	0.211
1031.85	0.212
1032.27	0.215
1032.69	0.207
1033.10	0.205
1033.52	0.203
1033.94	0.210
1034.36	0.202
1034.78	0.195
1035.19	0.210
1035.61	0.208
1036.03	0.210
1036.45	0.208
1036.87	0.198
1037.28	0.203
1037.70	0.201
1038.12	0.206
1038.54	0.200
1038.95	0.180
1039.37	0.197
1039.79	0.200
1040.21	0.203
1040.62	0.212
1041.04	0.194
1041.46	0.188
1041.88	0.179
1042.29	0.190
1042.71	0.176
1043.13	0.200
1043.55	0.177
1043.96	0.191
1044.38	0.202
1044.80	0.199
1045.21	0.179
1045.63	0.200
1046.05	0.178
1046.47	0.186
1046.88	0.183
1047.30	0.196
1047.72	0.184
1048.13	0.187
1048.55	0.178
1048.97	0.188
1049.38	0.199
1049.80	0.169
1050.22	0.214
1050.63	0.165
1051.05	0.216
1051.47	0.174
1051.88	0.181
1052.30	0.187
1052.72	0.192
1053.13	0.178
1053.55	0.192
1053.97	0.181
1054.38	0.177
1054.80	0.219
1055.21	0.212
1055.63	0.168
1056.05	0.174
1056.46	0.197
1056.88	0.226
1057.29	0.198
1057.71	0.198
1058.13	0.197
1058.54	0.219
1058.96	0.197
1059.37	0.241
1059.79	0.228
1060.21	0.211
1060.62	0.245
1061.04	0.191
1061.45	0.201
1061.87	0.172
1062.28	0.198
1062.70	0.259
1063.12	0.200
1063.53	0.173
1063.95	0.245
1064.36	0.255
1064.78	0.259
1065.19	0.305
1065.61	0.242
1066.02	0.258
1066.44	0.210
1066.85	0.238
1067.27	0.288
1067.68	0.202
1068.10	0.241
1068.51	0.288
1068.93	0.372
1069.35	0.321
1069.76	0.305
1070.17	0.294
1070.59	0.350
1071.00	0.268
1071.42	0.224
1071.83	0.451
1072.25	0.369
1072.66	0.325
1073.08	0.454
1073.49	0.377
1073.91	0.253
1074.32	0.322
1074.74	0.245
1075.15	0.413
1075.57	0.281
1075.98	0.444
1076.40	0.498
1076.81	0.398
1077.22	0.319
1077.64	0.473
1078.05	0.444
1078.47	0.334
1078.88	0.664
1079.30	0.802
1079.71	0.766
1080.12	1.000
1080.54	0.845
1080.95	0.990
1081.37	0.791
1081.78	0.450
1082.19	1.508
1082.61	1.068
1083.02	0.546
1083.44	0.730
1083.85	-0.000
1084.26	0.473
1084.68	-0.000
1085.09	0.805
1085.50	-0.000
1085.92	-0.000
1086.33	-0.000
1086.74	-0.000
1087.16	-0.000
1087.57	-0.000
1087.98	-0.000
1088.40	-0.000
1088.81	1.641
1089.22	-0.000
1089.64	-0.000
1090.05	-0.000
1090.46	-0.000
1090.88	0.957
1091.29	-0.000
1091.70	-0.000
1092.12	-0.000
1092.53	-0.000
1092.94	-0.000
1093.36	-0.000
1093.77	-0.000
1094.18	0.874
1094.59	-0.000
1095.01	-0.000
1095.42	-0.000
1095.83	-0.000
1096.25	-0.000
1096.66	-0.000
1097.07	-0.000
1097.48	-0.000
1097.90	-0.000
1098.31	-0.000
1098.72	-0.000
1099.13	-0.000
>>>>>End Processed Spectral Data<<<<<
