SpectraSuite Data File
++++++++++++++++++++++++++++++++++++
Date: Sun Apr 24 13:54:14 CEST 2016
User: spectrasuite
Dark Spectrum Present: Yes
Reference Spectrum Present: Yes
Number of Sampled Component Spectra: 1
Spectrometers: HR+C0708
Integration Time (usec): 1000 (HR+C0708)
Spectra Averaged: 10 (HR+C0708)
Boxcar Smoothing: 0 (HR+C0708)
Correct for Electrical Dark: No (HR+C0708)
Strobe/Lamp Enabled: No (HR+C0708)
Correct for Detector Non-linearity: No (HR+C0708)
Correct for Stray Light: No (HR+C0708)
Number of Pixels in Processed Spectrum: 2048
>>>>>Begin Processed Spectral Data<<<<<
188.76	1.675
189.23	-0.000
189.70	-0.000
190.17	-0.000
190.64	-0.000
191.12	-0.000
191.59	-0.000
192.06	-0.000
192.53	-0.000
193.01	-0.000
193.48	-0.000
193.95	-0.000
194.42	-0.000
194.90	0.484
195.37	-0.000
195.84	-0.000
196.31	-0.000
196.78	-0.000
197.26	-0.000
197.73	-0.000
198.20	-0.000
198.67	-0.000
199.14	-0.000
199.62	-0.000
200.09	-0.000
200.56	-0.000
201.03	1.324
201.50	0.984
201.97	0.657
202.45	1.552
202.92	0.639
203.39	0.773
203.86	1.266
204.33	1.025
204.80	1.008
205.28	0.887
205.75	1.316
206.22	1.119
206.69	1.630
207.16	1.024
207.63	0.777
208.11	0.865
208.58	1.527
209.05	1.079
209.52	-0.000
209.99	0.999
210.46	0.784
210.93	0.759
211.41	0.712
211.88	0.761
212.35	-0.000
212.82	-0.000
213.29	0.775
213.76	0.651
214.23	-0.000
214.70	-0.000
215.18	1.792
215.65	0.657
216.12	0.969
216.59	1.244
217.06	1.105
217.53	1.159
218.00	1.095
218.47	0.878
218.94	0.832
219.41	2.169
219.89	1.654
220.36	1.865
220.83	0.964
221.30	1.279
221.77	1.216
222.24	1.592
222.71	-0.000
223.18	-0.000
223.65	1.568
224.12	-0.000
224.59	-0.000
225.06	-0.000
225.54	1.337
226.01	1.129
226.48	1.184
226.95	1.520
227.42	1.496
227.89	-0.000
228.36	1.420
228.83	1.734
229.30	1.679
229.77	1.889
230.24	1.874
230.71	2.139
231.18	2.172
231.65	1.731
232.12	1.787
232.59	1.850
233.06	2.033
233.53	2.095
234.00	2.228
234.47	2.264
234.94	-0.000
235.41	2.200
235.88	-0.000
236.35	-0.000
236.82	2.356
237.29	2.269
237.76	2.521
238.23	2.671
238.70	2.693
239.17	2.258
239.64	2.681
240.11	-0.000
240.58	2.572
241.05	2.673
241.52	2.435
241.99	-0.000
242.46	2.396
242.93	3.009
243.40	2.797
243.87	2.433
244.34	2.282
244.81	2.591
245.28	3.230
245.75	2.695
246.22	3.764
246.69	2.808
247.16	3.119
247.63	2.642
248.10	2.753
248.57	2.731
249.04	4.103
249.51	2.771
249.98	3.235
250.45	3.090
250.92	2.759
251.39	2.762
251.85	3.059
252.32	-0.000
252.79	2.708
253.26	2.848
253.73	-0.000
254.20	2.776
254.67	2.655
255.14	2.753
255.61	-0.000
256.08	3.136
256.55	3.278
257.02	3.455
257.49	3.092
257.95	2.839
258.42	2.847
258.89	3.011
259.36	2.718
259.83	3.186
260.30	3.347
260.77	-0.000
261.24	2.962
261.71	3.595
262.17	-0.000
262.64	2.694
263.11	3.428
263.58	3.833
264.05	3.083
264.52	2.925
264.99	2.882
265.46	3.555
265.92	3.183
266.39	2.962
266.86	3.397
267.33	3.221
267.80	2.807
268.27	3.246
268.74	3.170
269.20	-0.000
269.67	3.037
270.14	2.730
270.61	3.032
271.08	3.160
271.55	2.951
272.01	3.021
272.48	2.926
272.95	2.900
273.42	3.050
273.89	2.944
274.36	2.832
274.82	2.727
275.29	2.632
275.76	2.851
276.23	2.740
276.70	3.094
277.16	2.645
277.63	2.626
278.10	2.660
278.57	2.603
279.04	2.671
279.50	2.612
279.97	2.554
280.44	2.525
280.91	2.673
281.38	2.589
281.84	2.716
282.31	2.925
282.78	2.801
283.25	2.592
283.72	2.556
284.18	2.558
284.65	2.700
285.12	2.581
285.59	2.551
286.05	2.653
286.52	2.599
286.99	2.675
287.46	2.679
287.92	2.595
288.39	2.551
288.86	2.570
289.33	2.531
289.79	2.639
290.26	2.561
290.73	2.555
291.20	2.608
291.66	2.538
292.13	2.429
292.60	2.439
293.07	2.437
293.53	2.299
294.00	2.452
294.47	2.454
294.93	2.409
295.40	2.457
295.87	2.424
296.34	2.432
296.80	2.370
297.27	2.374
297.74	2.369
298.20	2.397
298.67	2.275
299.14	2.375
299.60	2.358
300.07	2.313
300.54	2.362
301.01	2.323
301.47	2.238
301.94	2.220
302.41	2.282
302.87	2.361
303.34	2.367
303.81	2.245
304.27	2.299
304.74	2.217
305.21	2.183
305.67	2.217
306.14	2.196
306.61	2.299
307.07	2.223
307.54	2.192
308.01	2.205
308.47	2.179
308.94	2.212
309.40	2.192
309.87	2.164
310.34	2.154
310.80	2.229
311.27	2.218
311.74	2.171
312.20	2.211
312.67	2.213
313.13	2.140
313.60	2.198
314.07	2.223
314.53	2.148
315.00	2.147
315.47	2.206
315.93	2.189
316.40	2.159
316.86	2.114
317.33	2.102
317.80	2.123
318.26	2.144
318.73	2.125
319.19	2.118
319.66	2.089
320.13	2.127
320.59	2.117
321.06	2.111
321.52	2.162
321.99	2.079
322.45	2.036
322.92	2.000
323.39	2.037
323.85	2.010
324.32	2.077
324.78	2.032
325.25	2.007
325.71	1.982
326.18	1.985
326.64	2.072
327.11	2.001
327.58	1.938
328.04	1.920
328.51	2.018
328.97	1.987
329.44	1.942
329.90	1.872
330.37	1.902
330.83	1.844
331.30	1.857
331.76	1.852
332.23	1.818
332.69	1.787
333.16	1.746
333.62	1.757
334.09	1.709
334.56	1.684
335.02	1.668
335.49	1.617
335.95	1.583
336.42	1.545
336.88	1.528
337.35	1.486
337.81	1.466
338.28	1.419
338.74	1.390
339.20	1.368
339.67	1.335
340.13	1.298
340.60	1.256
341.06	1.209
341.53	1.186
341.99	1.145
342.46	1.110
342.92	1.080
343.39	1.050
343.85	1.024
344.32	1.003
344.78	0.979
345.25	0.955
345.71	0.925
346.17	0.894
346.64	0.861
347.10	0.832
347.57	0.807
348.03	0.781
348.50	0.753
348.96	0.733
349.43	0.713
349.89	0.688
350.35	0.679
350.82	0.662
351.28	0.648
351.75	0.628
352.21	0.612
352.67	0.595
353.14	0.578
353.60	0.567
354.07	0.552
354.53	0.535
355.00	0.527
355.46	0.516
355.92	0.508
356.39	0.501
356.85	0.491
357.31	0.480
357.78	0.475
358.24	0.463
358.71	0.456
359.17	0.453
359.63	0.448
360.10	0.441
360.56	0.437
361.03	0.437
361.49	0.426
361.95	0.427
362.42	0.420
362.88	0.416
363.34	0.413
363.81	0.408
364.27	0.410
364.73	0.402
365.20	0.403
365.66	0.400
366.12	0.398
366.59	0.397
367.05	0.394
367.51	0.394
367.98	0.384
368.44	0.385
368.90	0.383
369.37	0.383
369.83	0.378
370.29	0.383
370.76	0.380
371.22	0.379
371.68	0.376
372.15	0.373
372.61	0.369
373.07	0.372
373.54	0.369
374.00	0.367
374.46	0.366
374.92	0.367
375.39	0.364
375.85	0.361
376.31	0.362
376.78	0.361
377.24	0.362
377.70	0.355
378.16	0.355
378.63	0.351
379.09	0.354
379.55	0.353
380.01	0.353
380.48	0.351
380.94	0.351
381.40	0.347
381.87	0.345
382.33	0.343
382.79	0.344
383.25	0.342
383.72	0.343
384.18	0.343
384.64	0.338
385.10	0.338
385.56	0.339
386.03	0.336
386.49	0.334
386.95	0.332
387.41	0.333
387.88	0.332
388.34	0.334
388.80	0.328
389.26	0.328
389.72	0.328
390.19	0.329
390.65	0.327
391.11	0.327
391.57	0.326
392.04	0.323
392.50	0.321
392.96	0.320
393.42	0.319
393.88	0.319
394.34	0.317
394.81	0.316
395.27	0.315
395.73	0.319
396.19	0.315
396.65	0.314
397.12	0.312
397.58	0.308
398.04	0.310
398.50	0.308
398.96	0.307
399.42	0.309
399.89	0.305
400.35	0.305
400.81	0.300
401.27	0.302
401.73	0.303
402.19	0.303
402.65	0.302
403.12	0.297
403.58	0.298
404.04	0.301
404.50	0.298
404.96	0.296
405.42	0.297
405.88	0.291
406.34	0.297
406.81	0.294
407.27	0.293
407.73	0.291
408.19	0.290
408.65	0.290
409.11	0.288
409.57	0.291
410.03	0.287
410.49	0.289
410.96	0.285
411.42	0.286
411.88	0.283
412.34	0.282
412.80	0.283
413.26	0.278
413.72	0.281
414.18	0.280
414.64	0.279
415.10	0.281
415.56	0.279
416.02	0.280
416.48	0.276
416.95	0.274
417.41	0.274
417.87	0.272
418.33	0.274
418.79	0.271
419.25	0.272
419.71	0.270
420.17	0.273
420.63	0.272
421.09	0.269
421.55	0.267
422.01	0.270
422.47	0.266
422.93	0.267
423.39	0.267
423.85	0.267
424.31	0.266
424.77	0.266
425.23	0.267
425.69	0.266
426.15	0.264
426.61	0.259
427.07	0.257
427.53	0.261
427.99	0.260
428.45	0.259
428.91	0.261
429.37	0.258
429.83	0.258
430.29	0.255
430.75	0.259
431.21	0.260
431.67	0.257
432.13	0.256
432.59	0.253
433.05	0.254
433.51	0.251
433.97	0.253
434.43	0.251
434.89	0.253
435.35	0.250
435.81	0.250
436.27	0.246
436.73	0.249
437.19	0.248
437.65	0.249
438.11	0.247
438.57	0.247
439.03	0.249
439.48	0.248
439.94	0.245
440.40	0.246
440.86	0.249
441.32	0.244
441.78	0.245
442.24	0.244
442.70	0.243
443.16	0.237
443.62	0.237
444.08	0.240
444.54	0.238
444.99	0.239
445.45	0.240
445.91	0.238
446.37	0.238
446.83	0.238
447.29	0.235
447.75	0.237
448.21	0.236
448.67	0.234
449.12	0.235
449.58	0.234
450.04	0.230
450.50	0.230
450.96	0.233
451.42	0.232
451.88	0.228
452.34	0.231
452.79	0.229
453.25	0.233
453.71	0.229
454.17	0.227
454.63	0.227
455.09	0.229
455.55	0.228
456.00	0.227
456.46	0.226
456.92	0.226
457.38	0.224
457.84	0.224
458.30	0.219
458.75	0.226
459.21	0.220
459.67	0.224
460.13	0.222
460.59	0.222
461.04	0.222
461.50	0.222
461.96	0.220
462.42	0.221
462.88	0.220
463.33	0.220
463.79	0.218
464.25	0.219
464.71	0.217
465.17	0.217
465.62	0.216
466.08	0.218
466.54	0.215
467.00	0.215
467.46	0.216
467.91	0.214
468.37	0.213
468.83	0.215
469.29	0.211
469.74	0.213
470.20	0.214
470.66	0.212
471.12	0.211
471.57	0.211
472.03	0.210
472.49	0.211
472.95	0.210
473.40	0.210
473.86	0.210
474.32	0.208
474.78	0.209
475.23	0.206
475.69	0.208
476.15	0.205
476.60	0.208
477.06	0.208
477.52	0.207
477.98	0.205
478.43	0.205
478.89	0.206
479.35	0.202
479.80	0.205
480.26	0.205
480.72	0.202
481.18	0.205
481.63	0.204
482.09	0.203
482.55	0.203
483.00	0.201
483.46	0.201
483.92	0.198
484.37	0.201
484.83	0.199
485.29	0.201
485.74	0.200
486.20	0.199
486.66	0.199
487.11	0.199
487.57	0.197
488.03	0.196
488.48	0.195
488.94	0.195
489.40	0.197
489.85	0.197
490.31	0.195
490.77	0.193
491.22	0.196
491.68	0.193
492.13	0.193
492.59	0.192
493.05	0.194
493.50	0.192
493.96	0.193
494.42	0.189
494.87	0.189
495.33	0.190
495.78	0.192
496.24	0.190
496.70	0.190
497.15	0.188
497.61	0.190
498.06	0.188
498.52	0.188
498.98	0.187
499.43	0.189
499.89	0.188
500.34	0.185
500.80	0.185
501.25	0.185
501.71	0.185
502.17	0.185
502.62	0.187
503.08	0.185
503.53	0.182
503.99	0.182
504.44	0.181
504.90	0.182
505.36	0.181
505.81	0.182
506.27	0.182
506.72	0.181
507.18	0.181
507.63	0.181
508.09	0.181
508.54	0.179
509.00	0.179
509.45	0.179
509.91	0.179
510.36	0.179
510.82	0.178
511.27	0.178
511.73	0.178
512.19	0.177
512.64	0.178
513.10	0.177
513.55	0.179
514.01	0.176
514.46	0.175
514.92	0.176
515.37	0.176
515.83	0.175
516.28	0.173
516.73	0.175
517.19	0.176
517.64	0.173
518.10	0.174
518.55	0.173
519.01	0.174
519.46	0.173
519.92	0.174
520.37	0.170
520.83	0.170
521.28	0.171
521.74	0.173
522.19	0.171
522.65	0.169
523.10	0.170
523.55	0.171
524.01	0.173
524.46	0.167
524.92	0.170
525.37	0.167
525.83	0.167
526.28	0.166
526.73	0.167
527.19	0.170
527.64	0.170
528.10	0.166
528.55	0.167
529.01	0.169
529.46	0.166
529.91	0.166
530.37	0.166
530.82	0.166
531.28	0.164
531.73	0.165
532.18	0.164
532.64	0.165
533.09	0.164
533.54	0.164
534.00	0.163
534.45	0.164
534.91	0.164
535.36	0.165
535.81	0.162
536.27	0.162
536.72	0.163
537.17	0.160
537.63	0.160
538.08	0.162
538.54	0.162
538.99	0.161
539.44	0.162
539.90	0.161
540.35	0.159
540.80	0.158
541.26	0.160
541.71	0.157
542.16	0.159
542.62	0.157
543.07	0.159
543.52	0.161
543.98	0.157
544.43	0.156
544.88	0.156
545.34	0.158
545.79	0.156
546.24	0.155
546.69	0.157
547.15	0.156
547.60	0.155
548.05	0.157
548.51	0.154
548.96	0.154
549.41	0.155
549.86	0.155
550.32	0.155
550.77	0.155
551.22	0.153
551.68	0.152
552.13	0.153
552.58	0.151
553.03	0.154
553.49	0.154
553.94	0.153
554.39	0.153
554.84	0.152
555.30	0.150
555.75	0.152
556.20	0.151
556.65	0.149
557.11	0.149
557.56	0.151
558.01	0.152
558.46	0.150
558.92	0.149
559.37	0.148
559.82	0.148
560.27	0.148
560.72	0.148
561.18	0.148
561.63	0.146
562.08	0.147
562.53	0.148
562.99	0.148
563.44	0.147
563.89	0.147
564.34	0.147
564.79	0.147
565.25	0.145
565.70	0.145
566.15	0.143
566.60	0.143
567.05	0.144
567.50	0.146
567.96	0.145
568.41	0.145
568.86	0.144
569.31	0.143
569.76	0.143
570.21	0.143
570.67	0.141
571.12	0.143
571.57	0.143
572.02	0.142
572.47	0.140
572.92	0.142
573.37	0.141
573.83	0.140
574.28	0.141
574.73	0.140
575.18	0.142
575.63	0.144
576.08	0.139
576.53	0.141
576.98	0.140
577.44	0.137
577.89	0.137
578.34	0.139
578.79	0.137
579.24	0.139
579.69	0.138
580.14	0.136
580.59	0.137
581.04	0.137
581.49	0.137
581.95	0.137
582.40	0.137
582.85	0.136
583.30	0.135
583.75	0.134
584.20	0.135
584.65	0.137
585.10	0.137
585.55	0.135
586.00	0.135
586.45	0.136
586.90	0.137
587.35	0.136
587.80	0.134
588.25	0.133
588.71	0.134
589.16	0.132
589.61	0.133
590.06	0.135
590.51	0.136
590.96	0.133
591.41	0.132
591.86	0.134
592.31	0.133
592.76	0.133
593.21	0.132
593.66	0.135
594.11	0.135
594.56	0.133
595.01	0.134
595.46	0.133
595.91	0.133
596.36	0.131
596.81	0.133
597.26	0.132
597.71	0.132
598.16	0.133
598.61	0.132
599.06	0.131
599.51	0.131
599.96	0.133
600.41	0.133
600.86	0.132
601.31	0.131
601.76	0.131
602.21	0.132
602.65	0.132
603.10	0.132
603.55	0.132
604.00	0.130
604.45	0.130
604.90	0.129
605.35	0.129
605.80	0.130
606.25	0.131
606.70	0.131
607.15	0.129
607.60	0.129
608.05	0.128
608.50	0.129
608.95	0.127
609.39	0.130
609.84	0.130
610.29	0.129
610.74	0.128
611.19	0.127
611.64	0.128
612.09	0.129
612.54	0.129
612.99	0.128
613.44	0.127
613.88	0.128
614.33	0.126
614.78	0.126
615.23	0.125
615.68	0.126
616.13	0.126
616.58	0.125
617.03	0.126
617.47	0.127
617.92	0.125
618.37	0.124
618.82	0.127
619.27	0.125
619.72	0.123
620.17	0.123
620.61	0.124
621.06	0.124
621.51	0.123
621.96	0.121
622.41	0.123
622.86	0.124
623.30	0.123
623.75	0.124
624.20	0.124
624.65	0.123
625.10	0.123
625.54	0.123
625.99	0.123
626.44	0.122
626.89	0.123
627.34	0.124
627.78	0.122
628.23	0.120
628.68	0.121
629.13	0.121
629.58	0.122
630.02	0.121
630.47	0.120
630.92	0.121
631.37	0.119
631.81	0.122
632.26	0.120
632.71	0.121
633.16	0.122
633.61	0.121
634.05	0.118
634.50	0.119
634.95	0.120
635.40	0.121
635.84	0.122
636.29	0.120
636.74	0.121
637.18	0.121
637.63	0.120
638.08	0.119
638.53	0.119
638.97	0.119
639.42	0.120
639.87	0.120
640.32	0.118
640.76	0.122
641.21	0.120
641.66	0.120
642.10	0.122
642.55	0.120
643.00	0.118
643.44	0.119
643.89	0.120
644.34	0.118
644.79	0.119
645.23	0.120
645.68	0.121
646.13	0.119
646.57	0.118
647.02	0.116
647.47	0.119
647.91	0.118
648.36	0.120
648.81	0.118
649.25	0.118
649.70	0.117
650.15	0.118
650.59	0.119
651.04	0.117
651.48	0.119
651.93	0.118
652.38	0.116
652.82	0.117
653.27	0.118
653.72	0.118
654.16	0.117
654.61	0.118
655.06	0.115
655.50	0.117
655.95	0.114
656.39	0.111
656.84	0.114
657.29	0.118
657.73	0.116
658.18	0.118
658.62	0.116
659.07	0.116
659.52	0.115
659.96	0.117
660.41	0.117
660.85	0.115
661.30	0.115
661.74	0.115
662.19	0.115
662.64	0.115
663.08	0.117
663.53	0.116
663.97	0.115
664.42	0.113
664.86	0.116
665.31	0.117
665.75	0.113
666.20	0.116
666.65	0.116
667.09	0.115
667.54	0.117
667.98	0.114
668.43	0.112
668.87	0.113
669.32	0.114
669.76	0.113
670.21	0.114
670.65	0.111
671.10	0.113
671.54	0.114
671.99	0.111
672.43	0.111
672.88	0.112
673.32	0.113
673.77	0.111
674.21	0.111
674.66	0.109
675.10	0.110
675.55	0.108
675.99	0.111
676.44	0.110
676.88	0.110
677.33	0.110
677.77	0.110
678.22	0.109
678.66	0.107
679.11	0.107
679.55	0.109
679.99	0.107
680.44	0.110
680.88	0.107
681.33	0.106
681.77	0.106
682.22	0.107
682.66	0.106
683.11	0.106
683.55	0.105
683.99	0.103
684.44	0.104
684.88	0.103
685.33	0.104
685.77	0.102
686.21	0.103
686.66	0.104
687.10	0.103
687.55	0.103
687.99	0.104
688.44	0.103
688.88	0.103
689.32	0.102
689.77	0.102
690.21	0.102
690.65	0.102
691.10	0.101
691.54	0.100
691.99	0.102
692.43	0.101
692.87	0.099
693.32	0.102
693.76	0.101
694.20	0.103
694.65	0.100
695.09	0.101
695.53	0.099
695.98	0.100
696.42	0.101
696.86	0.098
697.31	0.098
697.75	0.098
698.19	0.097
698.64	0.099
699.08	0.098
699.52	0.098
699.97	0.098
700.41	0.099
700.85	0.100
701.30	0.097
701.74	0.099
702.18	0.097
702.63	0.098
703.07	0.098
703.51	0.101
703.96	0.098
704.40	0.098
704.84	0.100
705.28	0.098
705.73	0.097
706.17	0.097
706.61	0.095
707.06	0.095
707.50	0.096
707.94	0.096
708.38	0.095
708.83	0.098
709.27	0.096
709.71	0.096
710.15	0.098
710.60	0.094
711.04	0.096
711.48	0.097
711.92	0.098
712.37	0.096
712.81	0.098
713.25	0.096
713.69	0.098
714.13	0.098
714.58	0.095
715.02	0.094
715.46	0.096
715.90	0.094
716.35	0.095
716.79	0.099
717.23	0.097
717.67	0.096
718.11	0.096
718.56	0.096
719.00	0.097
719.44	0.096
719.88	0.095
720.32	0.095
720.76	0.095
721.21	0.095
721.65	0.094
722.09	0.094
722.53	0.095
722.97	0.095
723.41	0.095
723.86	0.097
724.30	0.097
724.74	0.096
725.18	0.098
725.62	0.095
726.06	0.097
726.50	0.097
726.95	0.096
727.39	0.098
727.83	0.097
728.27	0.096
728.71	0.097
729.15	0.097
729.59	0.097
730.03	0.094
730.48	0.097
730.92	0.096
731.36	0.100
731.80	0.098
732.24	0.099
732.68	0.096
733.12	0.093
733.56	0.097
734.00	0.098
734.44	0.098
734.89	0.098
735.33	0.100
735.77	0.100
736.21	0.099
736.65	0.098
737.09	0.100
737.53	0.099
737.97	0.097
738.41	0.099
738.85	0.100
739.29	0.099
739.73	0.095
740.17	0.100
740.61	0.099
741.05	0.100
741.49	0.099
741.93	0.099
742.37	0.096
742.81	0.100
743.26	0.099
743.70	0.097
744.14	0.097
744.58	0.098
745.02	0.100
745.46	0.099
745.90	0.098
746.34	0.098
746.78	0.099
747.22	0.099
747.66	0.097
748.10	0.098
748.54	0.098
748.98	0.096
749.42	0.096
749.86	0.098
750.29	0.098
750.73	0.096
751.17	0.095
751.61	0.096
752.05	0.099
752.49	0.096
752.93	0.097
753.37	0.096
753.81	0.096
754.25	0.095
754.69	0.095
755.13	0.096
755.57	0.098
756.01	0.098
756.45	0.097
756.89	0.097
757.33	0.097
757.77	0.095
758.21	0.096
758.64	0.094
759.08	0.091
759.52	0.095
759.96	0.095
760.40	0.093
760.84	0.093
761.28	0.095
761.72	0.095
762.16	0.096
762.60	0.093
763.03	0.092
763.47	0.094
763.91	0.094
764.35	0.095
764.79	0.094
765.23	0.091
765.67	0.093
766.11	0.088
766.54	0.091
766.98	0.094
767.42	0.091
767.86	0.091
768.30	0.095
768.74	0.093
769.17	0.096
769.61	0.093
770.05	0.092
770.49	0.095
770.93	0.092
771.37	0.090
771.80	0.092
772.24	0.092
772.68	0.093
773.12	0.090
773.56	0.093
774.00	0.089
774.43	0.092
774.87	0.090
775.31	0.091
775.75	0.092
776.19	0.092
776.62	0.092
777.06	0.094
777.50	0.090
777.94	0.089
778.37	0.089
778.81	0.092
779.25	0.092
779.69	0.094
780.13	0.089
780.56	0.090
781.00	0.091
781.44	0.093
781.88	0.091
782.31	0.091
782.75	0.088
783.19	0.093
783.63	0.089
784.06	0.089
784.50	0.090
784.94	0.089
785.37	0.089
785.81	0.092
786.25	0.092
786.69	0.086
787.12	0.088
787.56	0.088
788.00	0.091
788.43	0.090
788.87	0.092
789.31	0.089
789.75	0.091
790.18	0.089
790.62	0.090
791.06	0.088
791.49	0.089
791.93	0.088
792.37	0.092
792.80	0.089
793.24	0.088
793.68	0.089
794.11	0.089
794.55	0.091
794.99	0.090
795.42	0.091
795.86	0.091
796.30	0.089
796.73	0.090
797.17	0.089
797.61	0.087
798.04	0.091
798.48	0.091
798.91	0.087
799.35	0.090
799.79	0.089
800.22	0.090
800.66	0.088
801.10	0.088
801.53	0.089
801.97	0.094
802.40	0.090
802.84	0.088
803.28	0.087
803.71	0.090
804.15	0.088
804.58	0.090
805.02	0.088
805.46	0.087
805.89	0.090
806.33	0.086
806.76	0.086
807.20	0.090
807.63	0.085
808.07	0.092
808.51	0.087
808.94	0.087
809.38	0.087
809.81	0.088
810.25	0.088
810.68	0.090
811.12	0.088
811.55	0.083
811.99	0.087
812.42	0.088
812.86	0.087
813.29	0.087
813.73	0.089
814.17	0.088
814.60	0.086
815.04	0.086
815.47	0.084
815.91	0.083
816.34	0.086
816.78	0.085
817.21	0.092
817.65	0.089
818.08	0.085
818.52	0.090
818.95	0.091
819.39	0.088
819.82	0.087
820.25	0.088
820.69	0.088
821.12	0.088
821.56	0.089
821.99	0.085
822.43	0.089
822.86	0.091
823.30	0.090
823.73	0.087
824.17	0.085
824.60	0.086
825.04	0.091
825.47	0.086
825.90	0.087
826.34	0.086
826.77	0.088
827.21	0.092
827.64	0.088
828.08	0.091
828.51	0.089
828.94	0.090
829.38	0.087
829.81	0.088
830.25	0.091
830.68	0.090
831.11	0.093
831.55	0.091
831.98	0.093
832.42	0.088
832.85	0.092
833.28	0.093
833.72	0.094
834.15	0.092
834.58	0.092
835.02	0.093
835.45	0.094
835.88	0.095
836.32	0.094
836.75	0.092
837.19	0.098
837.62	0.094
838.05	0.094
838.49	0.093
838.92	0.093
839.35	0.095
839.79	0.096
840.22	0.096
840.65	0.091
841.09	0.095
841.52	0.089
841.95	0.089
842.39	0.096
842.82	0.089
843.25	0.092
843.68	0.096
844.12	0.093
844.55	0.087
844.98	0.093
845.42	0.097
845.85	0.087
846.28	0.091
846.71	0.093
847.15	0.093
847.58	0.097
848.01	0.097
848.45	0.096
848.88	0.097
849.31	0.092
849.74	0.094
850.18	0.097
850.61	0.096
851.04	0.095
851.47	0.096
851.91	0.097
852.34	0.097
852.77	0.096
853.20	0.095
853.64	0.093
854.07	0.099
854.50	0.096
854.93	0.097
855.36	0.095
855.80	0.092
856.23	0.092
856.66	0.098
857.09	0.094
857.52	0.098
857.96	0.094
858.39	0.094
858.82	0.090
859.25	0.099
859.68	0.100
860.12	0.092
860.55	0.096
860.98	0.096
861.41	0.090
861.84	0.094
862.27	0.095
862.71	0.097
863.14	0.098
863.57	0.100
864.00	0.093
864.43	0.099
864.86	0.101
865.30	0.102
865.73	0.098
866.16	0.092
866.59	0.095
867.02	0.093
867.45	0.096
867.88	0.098
868.31	0.095
868.75	0.095
869.18	0.096
869.61	0.099
870.04	0.096
870.47	0.103
870.90	0.097
871.33	0.095
871.76	0.100
872.19	0.101
872.62	0.093
873.06	0.095
873.49	0.096
873.92	0.094
874.35	0.099
874.78	0.096
875.21	0.100
875.64	0.093
876.07	0.104
876.50	0.101
876.93	0.104
877.36	0.100
877.79	0.100
878.22	0.097
878.65	0.101
879.08	0.100
879.51	0.105
879.94	0.099
880.37	0.101
880.80	0.109
881.23	0.099
881.67	0.103
882.10	0.102
882.53	0.096
882.96	0.102
883.39	0.106
883.82	0.100
884.25	0.096
884.68	0.104
885.11	0.098
885.54	0.099
885.97	0.100
886.39	0.097
886.82	0.101
887.25	0.100
887.68	0.102
888.11	0.103
888.54	0.101
888.97	0.101
889.40	0.100
889.83	0.097
890.26	0.101
890.69	0.097
891.12	0.104
891.55	0.105
891.98	0.104
892.41	0.101
892.84	0.104
893.27	0.103
893.70	0.103
894.13	0.101
894.56	0.106
894.98	0.109
895.41	0.104
895.84	0.107
896.27	0.105
896.70	0.108
897.13	0.111
897.56	0.105
897.99	0.102
898.42	0.101
898.85	0.106
899.27	0.103
899.70	0.106
900.13	0.108
900.56	0.109
900.99	0.102
901.42	0.107
901.85	0.108
902.28	0.107
902.70	0.106
903.13	0.109
903.56	0.108
903.99	0.103
904.42	0.108
904.85	0.110
905.27	0.104
905.70	0.107
906.13	0.107
906.56	0.107
906.99	0.106
907.42	0.105
907.84	0.104
908.27	0.107
908.70	0.108
909.13	0.108
909.56	0.105
909.98	0.107
910.41	0.103
910.84	0.105
911.27	0.109
911.70	0.104
912.12	0.103
912.55	0.102
912.98	0.106
913.41	0.104
913.84	0.106
914.26	0.103
914.69	0.102
915.12	0.105
915.55	0.102
915.97	0.105
916.40	0.104
916.83	0.102
917.26	0.106
917.68	0.104
918.11	0.109
918.54	0.107
918.97	0.109
919.39	0.105
919.82	0.109
920.25	0.104
920.67	0.107
921.10	0.111
921.53	0.109
921.96	0.108
922.38	0.109
922.81	0.104
923.24	0.114
923.66	0.107
924.09	0.107
924.52	0.115
924.94	0.113
925.37	0.117
925.80	0.113
926.22	0.113
926.65	0.112
927.08	0.112
927.50	0.115
927.93	0.118
928.36	0.112
928.78	0.117
929.21	0.117
929.64	0.119
930.06	0.127
930.49	0.121
930.92	0.121
931.34	0.119
931.77	0.124
932.20	0.121
932.62	0.125
933.05	0.126
933.47	0.128
933.90	0.126
934.33	0.124
934.75	0.123
935.18	0.128
935.61	0.131
936.03	0.127
936.46	0.135
936.88	0.134
937.31	0.134
937.73	0.136
938.16	0.132
938.59	0.139
939.01	0.138
939.44	0.145
939.86	0.142
940.29	0.141
940.71	0.146
941.14	0.152
941.57	0.149
941.99	0.150
942.42	0.151
942.84	0.151
943.27	0.160
943.69	0.156
944.12	0.159
944.54	0.173
944.97	0.161
945.39	0.163
945.82	0.163
946.24	0.169
946.67	0.169
947.09	0.178
947.52	0.167
947.94	0.175
948.37	0.180
948.79	0.176
949.22	0.185
949.64	0.174
950.07	0.195
950.49	0.191
950.92	0.199
951.34	0.191
951.77	0.201
952.19	0.196
952.62	0.205
953.04	0.204
953.47	0.207
953.89	0.207
954.32	0.216
954.74	0.212
955.17	0.211
955.59	0.224
956.01	0.224
956.44	0.230
956.86	0.228
957.29	0.236
957.71	0.238
958.14	0.237
958.56	0.239
958.98	0.239
959.41	0.242
959.83	0.244
960.26	0.238
960.68	0.251
961.10	0.248
961.53	0.247
961.95	0.252
962.38	0.249
962.80	0.249
963.22	0.250
963.65	0.255
964.07	0.256
964.50	0.259
964.92	0.260
965.34	0.260
965.77	0.254
966.19	0.260
966.61	0.263
967.04	0.265
967.46	0.258
967.88	0.268
968.31	0.262
968.73	0.256
969.15	0.262
969.58	0.263
970.00	0.262
970.42	0.266
970.85	0.262
971.27	0.262
971.69	0.261
972.12	0.268
972.54	0.272
972.96	0.272
973.39	0.268
973.81	0.274
974.23	0.268
974.65	0.265
975.08	0.265
975.50	0.270
975.92	0.265
976.35	0.265
976.77	0.269
977.19	0.273
977.61	0.266
978.04	0.262
978.46	0.275
978.88	0.268
979.30	0.267
979.73	0.269
980.15	0.267
980.57	0.270
980.99	0.270
981.42	0.265
981.84	0.271
982.26	0.266
982.68	0.272
983.11	0.266
983.53	0.264
983.95	0.268
984.37	0.268
984.79	0.264
985.22	0.265
985.64	0.266
986.06	0.265
986.48	0.263
986.90	0.259
987.33	0.253
987.75	0.257
988.17	0.257
988.59	0.258
989.01	0.258
989.43	0.254
989.86	0.258
990.28	0.259
990.70	0.260
991.12	0.262
991.54	0.262
991.96	0.259
992.39	0.253
992.81	0.255
993.23	0.258
993.65	0.254
994.07	0.255
994.49	0.250
994.91	0.248
995.34	0.242
995.76	0.249
996.18	0.247
996.60	0.250
997.02	0.256
997.44	0.242
997.86	0.243
998.28	0.246
998.70	0.248
999.12	0.248
999.55	0.241
999.97	0.240
1000.39	0.243
1000.81	0.236
1001.23	0.238
1001.65	0.240
1002.07	0.240
1002.49	0.241
1002.91	0.235
1003.33	0.239
1003.75	0.234
1004.17	0.234
1004.59	0.235
1005.01	0.241
1005.43	0.231
1005.85	0.235
1006.28	0.227
1006.70	0.228
1007.12	0.232
1007.54	0.230
1007.96	0.231
1008.38	0.229
1008.80	0.217
1009.22	0.222
1009.64	0.221
1010.06	0.229
1010.48	0.228
1010.90	0.224
1011.32	0.211
1011.74	0.209
1012.16	0.217
1012.58	0.221
1013.00	0.214
1013.42	0.208
1013.84	0.205
1014.26	0.210
1014.67	0.208
1015.09	0.211
1015.51	0.218
1015.93	0.212
1016.35	0.201
1016.77	0.211
1017.19	0.198
1017.61	0.210
1018.03	0.207
1018.45	0.203
1018.87	0.205
1019.29	0.209
1019.71	0.205
1020.13	0.199
1020.55	0.194
1020.97	0.191
1021.38	0.206
1021.80	0.193
1022.22	0.211
1022.64	0.198
1023.06	0.189
1023.48	0.205
1023.90	0.182
1024.32	0.185
1024.74	0.188
1025.15	0.191
1025.57	0.185
1025.99	0.185
1026.41	0.193
1026.83	0.183
1027.25	0.187
1027.67	0.190
1028.08	0.188
1028.50	0.186
1028.92	0.179
1029.34	0.182
1029.76	0.190
1030.18	0.175
1030.60	0.176
1031.01	0.181
1031.43	0.183
1031.85	0.194
1032.27	0.183
1032.69	0.165
1033.10	0.190
1033.52	0.167
1033.94	0.174
1034.36	0.173
1034.78	0.176
1035.19	0.171
1035.61	0.174
1036.03	0.171
1036.45	0.175
1036.87	0.174
1037.28	0.162
1037.70	0.163
1038.12	0.154
1038.54	0.157
1038.95	0.147
1039.37	0.167
1039.79	0.173
1040.21	0.165
1040.62	0.167
1041.04	0.176
1041.46	0.152
1041.88	0.162
1042.29	0.166
1042.71	0.165
1043.13	0.169
1043.55	0.156
1043.96	0.177
1044.38	0.159
1044.80	0.176
1045.21	0.161
1045.63	0.142
1046.05	0.150
1046.47	0.162
1046.88	0.150
1047.30	0.167
1047.72	0.143
1048.13	0.140
1048.55	0.137
1048.97	0.149
1049.38	0.164
1049.80	0.170
1050.22	0.178
1050.63	0.151
1051.05	0.166
1051.47	0.163
1051.88	0.144
1052.30	0.157
1052.72	0.174
1053.13	0.142
1053.55	0.161
1053.97	0.161
1054.38	0.160
1054.80	0.172
1055.21	0.176
1055.63	0.148
1056.05	0.131
1056.46	0.153
1056.88	0.169
1057.29	0.148
1057.71	0.159
1058.13	0.173
1058.54	0.174
1058.96	0.144
1059.37	0.153
1059.79	0.137
1060.21	0.161
1060.62	0.180
1061.04	0.167
1061.45	0.158
1061.87	0.147
1062.28	0.100
1062.70	0.190
1063.12	0.124
1063.53	0.131
1063.95	0.180
1064.36	0.186
1064.78	0.169
1065.19	0.185
1065.61	0.195
1066.02	0.165
1066.44	0.159
1066.85	0.169
1067.27	0.207
1067.68	0.182
1068.10	0.184
1068.51	0.258
1068.93	0.188
1069.35	0.356
1069.76	0.197
1070.17	0.252
1070.59	0.223
1071.00	0.201
1071.42	0.104
1071.83	0.251
1072.25	0.188
1072.66	0.182
1073.08	0.344
1073.49	0.202
1073.91	0.256
1074.32	0.346
1074.74	0.231
1075.15	0.337
1075.57	0.204
1075.98	0.387
1076.40	0.194
1076.81	0.225
1077.22	0.228
1077.64	0.374
1078.05	0.419
1078.47	0.152
1078.88	0.595
1079.30	0.566
1079.71	0.803
1080.12	0.620
1080.54	0.565
1080.95	0.462
1081.37	0.515
1081.78	0.241
1082.19	0.417
1082.61	0.796
1083.02	0.425
1083.44	0.501
1083.85	1.277
1084.26	0.732
1084.68	-0.000
1085.09	0.354
1085.50	-0.000
1085.92	0.770
1086.33	1.146
1086.74	0.740
1087.16	0.895
1087.57	1.716
1087.98	0.805
1088.40	1.574
1088.81	1.227
1089.22	1.782
1089.64	0.699
1090.05	-0.000
1090.46	0.615
1090.88	0.933
1091.29	-0.000
1091.70	-0.000
1092.12	-0.000
1092.53	-0.000
1092.94	-0.000
1093.36	-0.000
1093.77	-0.000
1094.18	-0.000
1094.59	-0.000
1095.01	-0.000
1095.42	1.405
1095.83	-0.000
1096.25	-0.000
1096.66	-0.000
1097.07	-0.000
1097.48	1.169
1097.90	-0.000
1098.31	-0.000
1098.72	-0.000
1099.13	-0.000
>>>>>End Processed Spectral Data<<<<<
