SpectraSuite Data File
++++++++++++++++++++++++++++++++++++
Date: Sun Apr 24 13:17:04 CEST 2016
User: spectrasuite
Dark Spectrum Present: Yes
Reference Spectrum Present: Yes
Number of Sampled Component Spectra: 1
Spectrometers: HR+C0708
Integration Time (usec): 1000 (HR+C0708)
Spectra Averaged: 10 (HR+C0708)
Boxcar Smoothing: 0 (HR+C0708)
Correct for Electrical Dark: No (HR+C0708)
Strobe/Lamp Enabled: No (HR+C0708)
Correct for Detector Non-linearity: No (HR+C0708)
Correct for Stray Light: No (HR+C0708)
Number of Pixels in Processed Spectrum: 2048
>>>>>Begin Processed Spectral Data<<<<<
188.76	-0.000
189.23	-0.000
189.70	-0.000
190.17	-0.000
190.64	-0.000
191.12	-0.000
191.59	-0.000
192.06	-0.000
192.53	-0.000
193.01	-0.000
193.48	-0.000
193.95	-0.000
194.42	-0.000
194.90	0.253
195.37	-0.000
195.84	-0.000
196.31	-0.000
196.78	-0.000
197.26	-0.000
197.73	-0.000
198.20	-0.000
198.67	-0.000
199.14	-0.000
199.62	-0.000
200.09	1.016
200.56	-0.000
201.03	-0.000
201.50	0.563
201.97	1.547
202.45	0.812
202.92	0.670
203.39	0.868
203.86	0.718
204.33	2.367
204.80	0.999
205.28	0.476
205.75	-0.000
206.22	-0.000
206.69	0.557
207.16	0.708
207.63	0.799
208.11	0.639
208.58	0.863
209.05	0.740
209.52	1.457
209.99	0.979
210.46	0.645
210.93	1.231
211.41	0.766
211.88	0.629
212.35	-0.000
212.82	-0.000
213.29	0.690
213.76	0.883
214.23	0.949
214.70	1.138
215.18	0.932
215.65	0.503
216.12	1.358
216.59	1.108
217.06	0.778
217.53	-0.000
218.00	1.174
218.47	1.039
218.94	1.165
219.41	1.108
219.89	1.220
220.36	1.404
220.83	0.982
221.30	-0.000
221.77	1.246
222.24	0.722
222.71	-0.000
223.18	1.645
223.65	0.631
224.12	2.663
224.59	-0.000
225.06	1.670
225.54	1.059
226.01	0.969
226.48	1.579
226.95	1.520
227.42	1.169
227.89	-0.000
228.36	1.586
228.83	1.384
229.30	2.192
229.77	1.402
230.24	1.455
230.71	1.852
231.18	1.622
231.65	2.046
232.12	1.621
232.59	1.598
233.06	3.564
233.53	1.883
234.00	1.835
234.47	-0.000
234.94	2.406
235.41	2.000
235.88	2.936
236.35	2.216
236.82	2.402
237.29	2.105
237.76	2.020
238.23	2.299
238.70	2.266
239.17	2.036
239.64	2.410
240.11	3.116
240.58	2.396
241.05	2.499
241.52	2.521
241.99	-0.000
242.46	2.473
242.93	2.596
243.40	2.850
243.87	2.266
244.34	2.290
244.81	3.060
245.28	3.946
245.75	2.835
246.22	2.769
246.69	2.820
247.16	2.586
247.63	2.773
248.10	2.534
248.57	3.284
249.04	2.732
249.51	2.535
249.98	3.013
250.45	2.740
250.92	2.754
251.39	3.008
251.85	2.934
252.32	-0.000
252.79	2.923
253.26	2.477
253.73	4.026
254.20	2.947
254.67	2.465
255.14	3.255
255.61	2.868
256.08	2.790
256.55	3.019
257.02	2.737
257.49	3.522
257.95	2.866
258.42	2.859
258.89	3.149
259.36	2.963
259.83	2.878
260.30	3.637
260.77	3.263
261.24	2.751
261.71	3.494
262.17	3.514
262.64	3.047
263.11	3.510
263.58	3.071
264.05	2.913
264.52	2.774
264.99	2.667
265.46	3.201
265.92	3.292
266.39	2.922
266.86	4.085
267.33	2.993
267.80	2.715
268.27	3.027
268.74	3.258
269.20	3.560
269.67	2.845
270.14	2.683
270.61	4.359
271.08	2.782
271.55	2.647
272.01	3.148
272.48	2.827
272.95	2.709
273.42	2.818
273.89	3.035
274.36	2.795
274.82	2.692
275.29	2.678
275.76	3.014
276.23	2.862
276.70	2.823
277.16	2.922
277.63	2.762
278.10	2.630
278.57	2.919
279.04	2.689
279.50	2.830
279.97	2.764
280.44	2.590
280.91	2.699
281.38	2.595
281.84	2.584
282.31	2.900
282.78	2.988
283.25	2.575
283.72	2.658
284.18	2.724
284.65	2.777
285.12	2.732
285.59	2.544
286.05	2.973
286.52	2.720
286.99	2.627
287.46	2.669
287.92	2.700
288.39	2.580
288.86	2.778
289.33	2.621
289.79	2.651
290.26	2.771
290.73	2.549
291.20	2.677
291.66	2.526
292.13	2.562
292.60	2.785
293.07	2.542
293.53	2.439
294.00	2.653
294.47	2.678
294.93	2.591
295.40	2.615
295.87	2.512
296.34	2.578
296.80	2.413
297.27	2.475
297.74	2.662
298.20	2.531
298.67	2.412
299.14	2.706
299.60	2.567
300.07	2.393
300.54	2.518
301.01	2.454
301.47	2.376
301.94	2.356
302.41	2.367
302.87	2.424
303.34	2.438
303.81	2.276
304.27	2.425
304.74	2.343
305.21	2.356
305.67	2.349
306.14	2.242
306.61	2.384
307.07	2.242
307.54	2.210
308.01	2.363
308.47	2.257
308.94	2.321
309.40	2.368
309.87	2.290
310.34	2.293
310.80	2.280
311.27	2.307
311.74	2.260
312.20	2.319
312.67	2.231
313.13	2.238
313.60	2.232
314.07	2.209
314.53	2.249
315.00	2.194
315.47	2.273
315.93	2.284
316.40	2.229
316.86	2.249
317.33	2.214
317.80	2.154
318.26	2.227
318.73	2.285
319.19	2.211
319.66	2.255
320.13	2.195
320.59	2.208
321.06	2.222
321.52	2.230
321.99	2.202
322.45	2.241
322.92	2.135
323.39	2.258
323.85	2.187
324.32	2.104
324.78	2.190
325.25	2.183
325.71	2.059
326.18	2.080
326.64	2.175
327.11	2.061
327.58	2.061
328.04	2.020
328.51	2.071
328.97	2.037
329.44	1.996
329.90	1.992
330.37	1.960
330.83	1.874
331.30	2.004
331.76	1.925
332.23	1.882
332.69	1.871
333.16	1.799
333.62	1.779
334.09	1.742
334.56	1.656
335.02	1.666
335.49	1.598
335.95	1.549
336.42	1.533
336.88	1.484
337.35	1.429
337.81	1.405
338.28	1.349
338.74	1.335
339.20	1.276
339.67	1.235
340.13	1.208
340.60	1.152
341.06	1.093
341.53	1.061
341.99	1.021
342.46	0.974
342.92	0.940
343.39	0.901
343.85	0.868
344.32	0.836
344.78	0.801
345.25	0.779
345.71	0.746
346.17	0.710
346.64	0.681
347.10	0.643
347.57	0.610
348.03	0.572
348.50	0.546
348.96	0.522
349.43	0.500
349.89	0.478
350.35	0.453
350.82	0.436
351.28	0.417
351.75	0.395
352.21	0.383
352.67	0.359
353.14	0.349
353.60	0.333
354.07	0.316
354.53	0.306
355.00	0.295
355.46	0.286
355.92	0.275
356.39	0.264
356.85	0.263
357.31	0.254
357.78	0.245
358.24	0.237
358.71	0.237
359.17	0.231
359.63	0.225
360.10	0.223
360.56	0.221
361.03	0.218
361.49	0.213
361.95	0.210
362.42	0.207
362.88	0.203
363.34	0.202
363.81	0.198
364.27	0.199
364.73	0.198
365.20	0.197
365.66	0.194
366.12	0.193
366.59	0.191
367.05	0.195
367.51	0.190
367.98	0.188
368.44	0.186
368.90	0.185
369.37	0.186
369.83	0.181
370.29	0.182
370.76	0.182
371.22	0.179
371.68	0.178
372.15	0.179
372.61	0.175
373.07	0.175
373.54	0.180
374.00	0.176
374.46	0.175
374.92	0.174
375.39	0.174
375.85	0.175
376.31	0.175
376.78	0.171
377.24	0.174
377.70	0.172
378.16	0.169
378.63	0.169
379.09	0.171
379.55	0.168
380.01	0.170
380.48	0.168
380.94	0.168
381.40	0.164
381.87	0.165
382.33	0.167
382.79	0.165
383.25	0.164
383.72	0.167
384.18	0.165
384.64	0.161
385.10	0.161
385.56	0.164
386.03	0.160
386.49	0.163
386.95	0.162
387.41	0.161
387.88	0.160
388.34	0.158
388.80	0.160
389.26	0.161
389.72	0.160
390.19	0.160
390.65	0.158
391.11	0.157
391.57	0.158
392.04	0.157
392.50	0.157
392.96	0.156
393.42	0.153
393.88	0.158
394.34	0.154
394.81	0.153
395.27	0.155
395.73	0.156
396.19	0.153
396.65	0.153
397.12	0.152
397.58	0.151
398.04	0.150
398.50	0.150
398.96	0.151
399.42	0.151
399.89	0.151
400.35	0.149
400.81	0.147
401.27	0.147
401.73	0.145
402.19	0.144
402.65	0.143
403.12	0.143
403.58	0.143
404.04	0.143
404.50	0.142
404.96	0.141
405.42	0.142
405.88	0.139
406.34	0.140
406.81	0.141
407.27	0.139
407.73	0.140
408.19	0.138
408.65	0.138
409.11	0.137
409.57	0.138
410.03	0.134
410.49	0.137
410.96	0.137
411.42	0.136
411.88	0.133
412.34	0.133
412.80	0.134
413.26	0.131
413.72	0.132
414.18	0.131
414.64	0.130
415.10	0.133
415.56	0.134
416.02	0.131
416.48	0.127
416.95	0.126
417.41	0.129
417.87	0.127
418.33	0.129
418.79	0.127
419.25	0.127
419.71	0.127
420.17	0.128
420.63	0.126
421.09	0.125
421.55	0.123
422.01	0.127
422.47	0.125
422.93	0.125
423.39	0.126
423.85	0.126
424.31	0.125
424.77	0.124
425.23	0.126
425.69	0.125
426.15	0.123
426.61	0.123
427.07	0.122
427.53	0.125
427.99	0.122
428.45	0.122
428.91	0.125
429.37	0.123
429.83	0.121
430.29	0.120
430.75	0.121
431.21	0.123
431.67	0.120
432.13	0.124
432.59	0.119
433.05	0.120
433.51	0.120
433.97	0.119
434.43	0.120
434.89	0.121
435.35	0.120
435.81	0.120
436.27	0.119
436.73	0.116
437.19	0.116
437.65	0.121
438.11	0.118
438.57	0.119
439.03	0.117
439.48	0.118
439.94	0.117
440.40	0.115
440.86	0.119
441.32	0.114
441.78	0.120
442.24	0.116
442.70	0.115
443.16	0.113
443.62	0.114
444.08	0.116
444.54	0.115
444.99	0.114
445.45	0.114
445.91	0.115
446.37	0.116
446.83	0.113
447.29	0.113
447.75	0.115
448.21	0.117
448.67	0.114
449.12	0.114
449.58	0.115
450.04	0.112
450.50	0.113
450.96	0.117
451.42	0.113
451.88	0.111
452.34	0.116
452.79	0.113
453.25	0.116
453.71	0.114
454.17	0.114
454.63	0.114
455.09	0.114
455.55	0.116
456.00	0.112
456.46	0.113
456.92	0.113
457.38	0.113
457.84	0.109
458.30	0.111
458.75	0.115
459.21	0.110
459.67	0.115
460.13	0.115
460.59	0.115
461.04	0.111
461.50	0.115
461.96	0.112
462.42	0.114
462.88	0.110
463.33	0.111
463.79	0.111
464.25	0.111
464.71	0.110
465.17	0.110
465.62	0.112
466.08	0.111
466.54	0.110
467.00	0.112
467.46	0.111
467.91	0.109
468.37	0.110
468.83	0.110
469.29	0.110
469.74	0.108
470.20	0.111
470.66	0.110
471.12	0.107
471.57	0.112
472.03	0.109
472.49	0.113
472.95	0.112
473.40	0.109
473.86	0.110
474.32	0.109
474.78	0.112
475.23	0.109
475.69	0.111
476.15	0.109
476.60	0.113
477.06	0.110
477.52	0.110
477.98	0.110
478.43	0.108
478.89	0.110
479.35	0.110
479.80	0.110
480.26	0.111
480.72	0.109
481.18	0.111
481.63	0.111
482.09	0.111
482.55	0.113
483.00	0.109
483.46	0.109
483.92	0.108
484.37	0.111
484.83	0.108
485.29	0.110
485.74	0.110
486.20	0.108
486.66	0.108
487.11	0.108
487.57	0.109
488.03	0.108
488.48	0.108
488.94	0.109
489.40	0.109
489.85	0.110
490.31	0.110
490.77	0.109
491.22	0.110
491.68	0.109
492.13	0.108
492.59	0.110
493.05	0.107
493.50	0.110
493.96	0.109
494.42	0.107
494.87	0.105
495.33	0.105
495.78	0.109
496.24	0.110
496.70	0.107
497.15	0.109
497.61	0.109
498.06	0.108
498.52	0.106
498.98	0.108
499.43	0.109
499.89	0.109
500.34	0.109
500.80	0.107
501.25	0.107
501.71	0.107
502.17	0.106
502.62	0.111
503.08	0.108
503.53	0.105
503.99	0.106
504.44	0.106
504.90	0.106
505.36	0.106
505.81	0.106
506.27	0.106
506.72	0.105
507.18	0.105
507.63	0.105
508.09	0.107
508.54	0.103
509.00	0.104
509.45	0.103
509.91	0.103
510.36	0.106
510.82	0.103
511.27	0.104
511.73	0.104
512.19	0.103
512.64	0.104
513.10	0.102
513.55	0.104
514.01	0.104
514.46	0.104
514.92	0.103
515.37	0.103
515.83	0.103
516.28	0.101
516.73	0.104
517.19	0.102
517.64	0.101
518.10	0.104
518.55	0.100
519.01	0.103
519.46	0.101
519.92	0.104
520.37	0.101
520.83	0.099
521.28	0.100
521.74	0.103
522.19	0.103
522.65	0.100
523.10	0.103
523.55	0.102
524.01	0.103
524.46	0.101
524.92	0.099
525.37	0.102
525.83	0.100
526.28	0.101
526.73	0.102
527.19	0.104
527.64	0.102
528.10	0.103
528.55	0.101
529.01	0.104
529.46	0.104
529.91	0.104
530.37	0.102
530.82	0.103
531.28	0.103
531.73	0.103
532.18	0.103
532.64	0.103
533.09	0.104
533.54	0.102
534.00	0.101
534.45	0.106
534.91	0.105
535.36	0.105
535.81	0.106
536.27	0.102
536.72	0.106
537.17	0.104
537.63	0.106
538.08	0.103
538.54	0.107
538.99	0.106
539.44	0.109
539.90	0.107
540.35	0.108
540.80	0.107
541.26	0.106
541.71	0.108
542.16	0.108
542.62	0.107
543.07	0.111
543.52	0.108
543.98	0.108
544.43	0.109
544.88	0.109
545.34	0.112
545.79	0.110
546.24	0.110
546.69	0.113
547.15	0.110
547.60	0.110
548.05	0.113
548.51	0.112
548.96	0.113
549.41	0.115
549.86	0.116
550.32	0.117
550.77	0.116
551.22	0.119
551.68	0.116
552.13	0.116
552.58	0.117
553.03	0.119
553.49	0.120
553.94	0.121
554.39	0.120
554.84	0.122
555.30	0.123
555.75	0.121
556.20	0.122
556.65	0.125
557.11	0.126
557.56	0.124
558.01	0.128
558.46	0.129
558.92	0.126
559.37	0.129
559.82	0.130
560.27	0.129
560.72	0.131
561.18	0.130
561.63	0.131
562.08	0.131
562.53	0.135
562.99	0.135
563.44	0.136
563.89	0.135
564.34	0.137
564.79	0.138
565.25	0.138
565.70	0.139
566.15	0.137
566.60	0.139
567.05	0.141
567.50	0.143
567.96	0.143
568.41	0.144
568.86	0.143
569.31	0.144
569.76	0.145
570.21	0.148
570.67	0.147
571.12	0.150
571.57	0.150
572.02	0.150
572.47	0.150
572.92	0.154
573.37	0.152
573.83	0.154
574.28	0.157
574.73	0.157
575.18	0.158
575.63	0.160
576.08	0.158
576.53	0.162
576.98	0.161
577.44	0.163
577.89	0.165
578.34	0.166
578.79	0.168
579.24	0.169
579.69	0.171
580.14	0.169
580.59	0.170
581.04	0.171
581.49	0.175
581.95	0.177
582.40	0.181
582.85	0.179
583.30	0.180
583.75	0.182
584.20	0.186
584.65	0.187
585.10	0.188
585.55	0.193
586.00	0.193
586.45	0.195
586.90	0.199
587.35	0.200
587.80	0.200
588.25	0.204
588.71	0.206
589.16	0.209
589.61	0.207
590.06	0.210
590.51	0.216
590.96	0.217
591.41	0.217
591.86	0.223
592.31	0.223
592.76	0.227
593.21	0.230
593.66	0.231
594.11	0.235
594.56	0.235
595.01	0.239
595.46	0.241
595.91	0.242
596.36	0.245
596.81	0.250
597.26	0.252
597.71	0.255
598.16	0.256
598.61	0.258
599.06	0.264
599.51	0.267
599.96	0.269
600.41	0.272
600.86	0.273
601.31	0.277
601.76	0.279
602.21	0.281
602.65	0.285
603.10	0.288
603.55	0.289
604.00	0.293
604.45	0.296
604.90	0.296
605.35	0.299
605.80	0.302
606.25	0.306
606.70	0.308
607.15	0.307
607.60	0.311
608.05	0.311
608.50	0.314
608.95	0.315
609.39	0.321
609.84	0.319
610.29	0.320
610.74	0.322
611.19	0.326
611.64	0.328
612.09	0.329
612.54	0.329
612.99	0.331
613.44	0.330
613.88	0.333
614.33	0.336
614.78	0.331
615.23	0.333
615.68	0.337
616.13	0.339
616.58	0.340
617.03	0.339
617.47	0.339
617.92	0.341
618.37	0.340
618.82	0.339
619.27	0.341
619.72	0.342
620.17	0.341
620.61	0.341
621.06	0.344
621.51	0.344
621.96	0.344
622.41	0.345
622.86	0.348
623.30	0.348
623.75	0.350
624.20	0.349
624.65	0.347
625.10	0.350
625.54	0.347
625.99	0.353
626.44	0.353
626.89	0.355
627.34	0.357
627.78	0.356
628.23	0.358
628.68	0.358
629.13	0.360
629.58	0.358
630.02	0.361
630.47	0.364
630.92	0.365
631.37	0.366
631.81	0.370
632.26	0.372
632.71	0.373
633.16	0.377
633.61	0.379
634.05	0.379
634.50	0.382
634.95	0.388
635.40	0.388
635.84	0.390
636.29	0.393
636.74	0.398
637.18	0.402
637.63	0.404
638.08	0.404
638.53	0.410
638.97	0.411
639.42	0.419
639.87	0.421
640.32	0.422
640.76	0.428
641.21	0.433
641.66	0.434
642.10	0.439
642.55	0.444
643.00	0.446
643.44	0.453
643.89	0.455
644.34	0.457
644.79	0.464
645.23	0.470
645.68	0.475
646.13	0.480
646.57	0.485
647.02	0.487
647.47	0.491
647.91	0.497
648.36	0.500
648.81	0.506
649.25	0.508
649.70	0.515
650.15	0.519
650.59	0.523
651.04	0.528
651.48	0.535
651.93	0.538
652.38	0.541
652.82	0.547
653.27	0.548
653.72	0.556
654.16	0.558
654.61	0.564
655.06	0.566
655.50	0.568
655.95	0.573
656.39	0.573
656.84	0.580
657.29	0.586
657.73	0.587
658.18	0.589
658.62	0.595
659.07	0.597
659.52	0.601
659.96	0.604
660.41	0.608
660.85	0.611
661.30	0.612
661.74	0.616
662.19	0.618
662.64	0.620
663.08	0.621
663.53	0.625
663.97	0.626
664.42	0.625
664.86	0.630
665.31	0.629
665.75	0.627
666.20	0.631
666.65	0.630
667.09	0.628
667.54	0.628
667.98	0.627
668.43	0.626
668.87	0.624
669.32	0.619
669.76	0.617
670.21	0.614
670.65	0.609
671.10	0.605
671.54	0.596
671.99	0.592
672.43	0.587
672.88	0.579
673.32	0.575
673.77	0.565
674.21	0.557
674.66	0.550
675.10	0.539
675.55	0.528
675.99	0.525
676.44	0.511
676.88	0.503
677.33	0.489
677.77	0.478
678.22	0.469
678.66	0.456
679.11	0.447
679.55	0.439
679.99	0.420
680.44	0.413
680.88	0.399
681.33	0.387
681.77	0.377
682.22	0.367
682.66	0.356
683.11	0.344
683.55	0.333
683.99	0.324
684.44	0.313
684.88	0.300
685.33	0.292
685.77	0.281
686.21	0.272
686.66	0.263
687.10	0.254
687.55	0.246
687.99	0.238
688.44	0.230
688.88	0.221
689.32	0.214
689.77	0.205
690.21	0.197
690.65	0.189
691.10	0.184
691.54	0.177
691.99	0.172
692.43	0.164
692.87	0.158
693.32	0.155
693.76	0.151
694.20	0.147
694.65	0.141
695.09	0.137
695.53	0.131
695.98	0.127
696.42	0.125
696.86	0.120
697.31	0.115
697.75	0.112
698.19	0.108
698.64	0.104
699.08	0.105
699.52	0.100
699.97	0.099
700.41	0.097
700.85	0.094
701.30	0.091
701.74	0.089
702.18	0.089
702.63	0.084
703.07	0.084
703.51	0.085
703.96	0.080
704.40	0.079
704.84	0.076
705.28	0.076
705.73	0.073
706.17	0.073
706.61	0.071
707.06	0.069
707.50	0.068
707.94	0.068
708.38	0.069
708.83	0.069
709.27	0.066
709.71	0.066
710.15	0.065
710.60	0.062
711.04	0.062
711.48	0.062
711.92	0.063
712.37	0.059
712.81	0.062
713.25	0.059
713.69	0.059
714.13	0.060
714.58	0.058
715.02	0.059
715.46	0.057
715.90	0.056
716.35	0.056
716.79	0.057
717.23	0.059
717.67	0.057
718.11	0.056
718.56	0.058
719.00	0.057
719.44	0.054
719.88	0.056
720.32	0.056
720.76	0.055
721.21	0.055
721.65	0.053
722.09	0.054
722.53	0.053
722.97	0.053
723.41	0.051
723.86	0.053
724.30	0.053
724.74	0.055
725.18	0.055
725.62	0.053
726.06	0.055
726.50	0.053
726.95	0.054
727.39	0.053
727.83	0.052
728.27	0.053
728.71	0.053
729.15	0.054
729.59	0.055
730.03	0.052
730.48	0.053
730.92	0.053
731.36	0.053
731.80	0.056
732.24	0.055
732.68	0.052
733.12	0.053
733.56	0.053
734.00	0.053
734.44	0.054
734.89	0.055
735.33	0.053
735.77	0.057
736.21	0.056
736.65	0.052
737.09	0.055
737.53	0.056
737.97	0.057
738.41	0.057
738.85	0.059
739.29	0.054
739.73	0.055
740.17	0.055
740.61	0.056
741.05	0.056
741.49	0.057
741.93	0.055
742.37	0.053
742.81	0.055
743.26	0.056
743.70	0.055
744.14	0.056
744.58	0.054
745.02	0.054
745.46	0.056
745.90	0.057
746.34	0.056
746.78	0.054
747.22	0.055
747.66	0.055
748.10	0.055
748.54	0.056
748.98	0.054
749.42	0.054
749.86	0.055
750.29	0.055
750.73	0.054
751.17	0.054
751.61	0.052
752.05	0.055
752.49	0.055
752.93	0.053
753.37	0.052
753.81	0.052
754.25	0.052
754.69	0.051
755.13	0.052
755.57	0.057
756.01	0.057
756.45	0.057
756.89	0.054
757.33	0.054
757.77	0.053
758.21	0.052
758.64	0.051
759.08	0.051
759.52	0.054
759.96	0.055
760.40	0.053
760.84	0.050
761.28	0.056
761.72	0.053
762.16	0.055
762.60	0.054
763.03	0.052
763.47	0.054
763.91	0.055
764.35	0.052
764.79	0.051
765.23	0.053
765.67	0.052
766.11	0.051
766.54	0.051
766.98	0.054
767.42	0.053
767.86	0.051
768.30	0.055
768.74	0.057
769.17	0.053
769.61	0.055
770.05	0.053
770.49	0.053
770.93	0.053
771.37	0.049
771.80	0.054
772.24	0.050
772.68	0.050
773.12	0.053
773.56	0.051
774.00	0.049
774.43	0.050
774.87	0.052
775.31	0.052
775.75	0.052
776.19	0.051
776.62	0.050
777.06	0.054
777.50	0.052
777.94	0.052
778.37	0.052
778.81	0.051
779.25	0.052
779.69	0.052
780.13	0.051
780.56	0.051
781.00	0.050
781.44	0.051
781.88	0.051
782.31	0.048
782.75	0.051
783.19	0.052
783.63	0.046
784.06	0.050
784.50	0.051
784.94	0.050
785.37	0.051
785.81	0.052
786.25	0.051
786.69	0.049
787.12	0.050
787.56	0.051
788.00	0.053
788.43	0.050
788.87	0.052
789.31	0.052
789.75	0.050
790.18	0.049
790.62	0.050
791.06	0.050
791.49	0.050
791.93	0.051
792.37	0.051
792.80	0.048
793.24	0.048
793.68	0.050
794.11	0.052
794.55	0.054
794.99	0.051
795.42	0.049
795.86	0.052
796.30	0.052
796.73	0.054
797.17	0.052
797.61	0.050
798.04	0.048
798.48	0.053
798.91	0.050
799.35	0.049
799.79	0.052
800.22	0.050
800.66	0.047
801.10	0.052
801.53	0.052
801.97	0.053
802.40	0.051
802.84	0.049
803.28	0.050
803.71	0.051
804.15	0.050
804.58	0.053
805.02	0.050
805.46	0.050
805.89	0.050
806.33	0.053
806.76	0.050
807.20	0.051
807.63	0.048
808.07	0.052
808.51	0.048
808.94	0.047
809.38	0.051
809.81	0.052
810.25	0.054
810.68	0.055
811.12	0.051
811.55	0.053
811.99	0.049
812.42	0.049
812.86	0.051
813.29	0.052
813.73	0.051
814.17	0.054
814.60	0.052
815.04	0.052
815.47	0.051
815.91	0.050
816.34	0.049
816.78	0.052
817.21	0.055
817.65	0.053
818.08	0.049
818.52	0.050
818.95	0.052
819.39	0.050
819.82	0.055
820.25	0.052
820.69	0.049
821.12	0.054
821.56	0.052
821.99	0.051
822.43	0.049
822.86	0.054
823.30	0.053
823.73	0.054
824.17	0.053
824.60	0.048
825.04	0.054
825.47	0.052
825.90	0.055
826.34	0.054
826.77	0.053
827.21	0.056
827.64	0.054
828.08	0.054
828.51	0.056
828.94	0.054
829.38	0.052
829.81	0.056
830.25	0.060
830.68	0.057
831.11	0.057
831.55	0.058
831.98	0.060
832.42	0.060
832.85	0.060
833.28	0.061
833.72	0.060
834.15	0.055
834.58	0.062
835.02	0.060
835.45	0.060
835.88	0.058
836.32	0.060
836.75	0.058
837.19	0.061
837.62	0.060
838.05	0.061
838.49	0.058
838.92	0.059
839.35	0.060
839.79	0.062
840.22	0.059
840.65	0.058
841.09	0.060
841.52	0.061
841.95	0.063
842.39	0.058
842.82	0.055
843.25	0.061
843.68	0.061
844.12	0.061
844.55	0.060
844.98	0.061
845.42	0.059
845.85	0.056
846.28	0.061
846.71	0.054
847.15	0.060
847.58	0.062
848.01	0.061
848.45	0.059
848.88	0.064
849.31	0.058
849.74	0.060
850.18	0.064
850.61	0.065
851.04	0.062
851.47	0.059
851.91	0.063
852.34	0.064
852.77	0.063
853.20	0.062
853.64	0.060
854.07	0.062
854.50	0.061
854.93	0.067
855.36	0.061
855.80	0.058
856.23	0.059
856.66	0.062
857.09	0.063
857.52	0.062
857.96	0.057
858.39	0.064
858.82	0.054
859.25	0.061
859.68	0.063
860.12	0.062
860.55	0.059
860.98	0.063
861.41	0.059
861.84	0.064
862.27	0.062
862.71	0.060
863.14	0.066
863.57	0.063
864.00	0.059
864.43	0.066
864.86	0.061
865.30	0.069
865.73	0.064
866.16	0.067
866.59	0.064
867.02	0.064
867.45	0.061
867.88	0.064
868.31	0.065
868.75	0.064
869.18	0.071
869.61	0.066
870.04	0.065
870.47	0.069
870.90	0.064
871.33	0.066
871.76	0.067
872.19	0.068
872.62	0.069
873.06	0.062
873.49	0.072
873.92	0.070
874.35	0.070
874.78	0.069
875.21	0.064
875.64	0.064
876.07	0.069
876.50	0.064
876.93	0.074
877.36	0.073
877.79	0.068
878.22	0.062
878.65	0.074
879.08	0.065
879.51	0.072
879.94	0.067
880.37	0.072
880.80	0.070
881.23	0.070
881.67	0.074
882.10	0.071
882.53	0.068
882.96	0.077
883.39	0.073
883.82	0.068
884.25	0.068
884.68	0.071
885.11	0.068
885.54	0.072
885.97	0.071
886.39	0.070
886.82	0.067
887.25	0.071
887.68	0.069
888.11	0.072
888.54	0.069
888.97	0.070
889.40	0.074
889.83	0.070
890.26	0.067
890.69	0.068
891.12	0.071
891.55	0.074
891.98	0.071
892.41	0.064
892.84	0.071
893.27	0.072
893.70	0.076
894.13	0.077
894.56	0.075
894.98	0.079
895.41	0.081
895.84	0.074
896.27	0.074
896.70	0.076
897.13	0.078
897.56	0.079
897.99	0.076
898.42	0.072
898.85	0.080
899.27	0.075
899.70	0.077
900.13	0.077
900.56	0.076
900.99	0.078
901.42	0.077
901.85	0.074
902.28	0.080
902.70	0.078
903.13	0.076
903.56	0.082
903.99	0.075
904.42	0.075
904.85	0.079
905.27	0.075
905.70	0.075
906.13	0.079
906.56	0.077
906.99	0.078
907.42	0.074
907.84	0.075
908.27	0.080
908.70	0.083
909.13	0.079
909.56	0.079
909.98	0.078
910.41	0.075
910.84	0.075
911.27	0.079
911.70	0.077
912.12	0.077
912.55	0.076
912.98	0.079
913.41	0.077
913.84	0.077
914.26	0.079
914.69	0.079
915.12	0.074
915.55	0.075
915.97	0.077
916.40	0.079
916.83	0.078
917.26	0.075
917.68	0.080
918.11	0.079
918.54	0.077
918.97	0.077
919.39	0.080
919.82	0.077
920.25	0.079
920.67	0.079
921.10	0.082
921.53	0.080
921.96	0.081
922.38	0.082
922.81	0.080
923.24	0.082
923.66	0.081
924.09	0.085
924.52	0.083
924.94	0.083
925.37	0.085
925.80	0.084
926.22	0.085
926.65	0.083
927.08	0.088
927.50	0.088
927.93	0.090
928.36	0.087
928.78	0.088
929.21	0.087
929.64	0.091
930.06	0.091
930.49	0.088
930.92	0.095
931.34	0.091
931.77	0.095
932.20	0.096
932.62	0.095
933.05	0.096
933.47	0.099
933.90	0.095
934.33	0.095
934.75	0.101
935.18	0.100
935.61	0.103
936.03	0.103
936.46	0.105
936.88	0.105
937.31	0.107
937.73	0.107
938.16	0.106
938.59	0.107
939.01	0.120
939.44	0.118
939.86	0.120
940.29	0.118
940.71	0.118
941.14	0.123
941.57	0.125
941.99	0.125
942.42	0.129
942.84	0.134
943.27	0.133
943.69	0.134
944.12	0.135
944.54	0.140
944.97	0.134
945.39	0.133
945.82	0.140
946.24	0.136
946.67	0.138
947.09	0.150
947.52	0.143
947.94	0.145
948.37	0.156
948.79	0.157
949.22	0.155
949.64	0.153
950.07	0.162
950.49	0.161
950.92	0.170
951.34	0.162
951.77	0.169
952.19	0.164
952.62	0.176
953.04	0.184
953.47	0.181
953.89	0.182
954.32	0.195
954.74	0.190
955.17	0.186
955.59	0.199
956.01	0.196
956.44	0.208
956.86	0.207
957.29	0.205
957.71	0.219
958.14	0.207
958.56	0.211
958.98	0.212
959.41	0.211
959.83	0.214
960.26	0.218
960.68	0.221
961.10	0.224
961.53	0.223
961.95	0.224
962.38	0.234
962.80	0.222
963.22	0.229
963.65	0.232
964.07	0.228
964.50	0.234
964.92	0.236
965.34	0.234
965.77	0.230
966.19	0.235
966.61	0.234
967.04	0.243
967.46	0.232
967.88	0.243
968.31	0.236
968.73	0.238
969.15	0.232
969.58	0.238
970.00	0.236
970.42	0.235
970.85	0.234
971.27	0.237
971.69	0.241
972.12	0.240
972.54	0.239
972.96	0.248
973.39	0.245
973.81	0.242
974.23	0.240
974.65	0.237
975.08	0.236
975.50	0.241
975.92	0.246
976.35	0.240
976.77	0.240
977.19	0.241
977.61	0.243
978.04	0.235
978.46	0.242
978.88	0.239
979.30	0.241
979.73	0.239
980.15	0.250
980.57	0.248
980.99	0.248
981.42	0.250
981.84	0.245
982.26	0.237
982.68	0.236
983.11	0.242
983.53	0.239
983.95	0.245
984.37	0.241
984.79	0.240
985.22	0.244
985.64	0.245
986.06	0.240
986.48	0.237
986.90	0.239
987.33	0.236
987.75	0.239
988.17	0.241
988.59	0.235
989.01	0.233
989.43	0.230
989.86	0.236
990.28	0.242
990.70	0.242
991.12	0.232
991.54	0.241
991.96	0.232
992.39	0.227
992.81	0.230
993.23	0.231
993.65	0.223
994.07	0.230
994.49	0.232
994.91	0.234
995.34	0.222
995.76	0.223
996.18	0.230
996.60	0.223
997.02	0.220
997.44	0.222
997.86	0.220
998.28	0.218
998.70	0.223
999.12	0.218
999.55	0.220
999.97	0.222
1000.39	0.214
1000.81	0.220
1001.23	0.216
1001.65	0.206
1002.07	0.229
1002.49	0.222
1002.91	0.205
1003.33	0.208
1003.75	0.213
1004.17	0.213
1004.59	0.213
1005.01	0.208
1005.43	0.209
1005.85	0.209
1006.28	0.210
1006.70	0.208
1007.12	0.210
1007.54	0.207
1007.96	0.205
1008.38	0.206
1008.80	0.194
1009.22	0.197
1009.64	0.195
1010.06	0.200
1010.48	0.202
1010.90	0.193
1011.32	0.194
1011.74	0.201
1012.16	0.195
1012.58	0.194
1013.00	0.186
1013.42	0.185
1013.84	0.187
1014.26	0.189
1014.67	0.190
1015.09	0.191
1015.51	0.191
1015.93	0.183
1016.35	0.182
1016.77	0.178
1017.19	0.186
1017.61	0.188
1018.03	0.187
1018.45	0.181
1018.87	0.189
1019.29	0.182
1019.71	0.174
1020.13	0.173
1020.55	0.179
1020.97	0.167
1021.38	0.174
1021.80	0.165
1022.22	0.168
1022.64	0.164
1023.06	0.165
1023.48	0.167
1023.90	0.173
1024.32	0.163
1024.74	0.172
1025.15	0.160
1025.57	0.164
1025.99	0.155
1026.41	0.174
1026.83	0.168
1027.25	0.160
1027.67	0.163
1028.08	0.155
1028.50	0.169
1028.92	0.153
1029.34	0.154
1029.76	0.177
1030.18	0.150
1030.60	0.148
1031.01	0.171
1031.43	0.169
1031.85	0.160
1032.27	0.157
1032.69	0.150
1033.10	0.164
1033.52	0.155
1033.94	0.152
1034.36	0.155
1034.78	0.157
1035.19	0.159
1035.61	0.153
1036.03	0.144
1036.45	0.140
1036.87	0.155
1037.28	0.142
1037.70	0.138
1038.12	0.148
1038.54	0.136
1038.95	0.134
1039.37	0.133
1039.79	0.139
1040.21	0.152
1040.62	0.138
1041.04	0.136
1041.46	0.142
1041.88	0.138
1042.29	0.142
1042.71	0.141
1043.13	0.146
1043.55	0.131
1043.96	0.154
1044.38	0.133
1044.80	0.158
1045.21	0.136
1045.63	0.121
1046.05	0.128
1046.47	0.124
1046.88	0.134
1047.30	0.145
1047.72	0.130
1048.13	0.128
1048.55	0.125
1048.97	0.125
1049.38	0.153
1049.80	0.122
1050.22	0.126
1050.63	0.123
1051.05	0.136
1051.47	0.127
1051.88	0.137
1052.30	0.135
1052.72	0.132
1053.13	0.116
1053.55	0.124
1053.97	0.142
1054.38	0.115
1054.80	0.119
1055.21	0.143
1055.63	0.098
1056.05	0.100
1056.46	0.149
1056.88	0.130
1057.29	0.120
1057.71	0.120
1058.13	0.136
1058.54	0.163
1058.96	0.120
1059.37	0.120
1059.79	0.136
1060.21	0.148
1060.62	0.109
1061.04	0.135
1061.45	0.115
1061.87	0.126
1062.28	0.143
1062.70	0.148
1063.12	0.142
1063.53	0.120
1063.95	0.124
1064.36	0.209
1064.78	0.191
1065.19	0.141
1065.61	0.178
1066.02	0.156
1066.44	0.135
1066.85	0.174
1067.27	0.184
1067.68	0.153
1068.10	0.151
1068.51	0.145
1068.93	0.230
1069.35	0.187
1069.76	0.164
1070.17	0.278
1070.59	0.183
1071.00	0.143
1071.42	0.208
1071.83	0.211
1072.25	0.210
1072.66	0.177
1073.08	0.211
1073.49	0.300
1073.91	0.166
1074.32	0.203
1074.74	0.221
1075.15	0.158
1075.57	0.244
1075.98	0.320
1076.40	0.162
1076.81	0.268
1077.22	0.182
1077.64	0.201
1078.05	0.384
1078.47	0.189
1078.88	0.340
1079.30	0.479
1079.71	0.576
1080.12	0.398
1080.54	1.156
1080.95	0.600
1081.37	0.694
1081.78	0.153
1082.19	0.193
1082.61	0.967
1083.02	0.414
1083.44	0.441
1083.85	1.239
1084.26	0.763
1084.68	0.680
1085.09	2.157
1085.50	1.111
1085.92	-0.000
1086.33	0.914
1086.74	0.328
1087.16	-0.000
1087.57	-0.000
1087.98	0.140
1088.40	0.671
1088.81	0.678
1089.22	0.969
1089.64	-0.000
1090.05	0.436
1090.46	1.027
1090.88	-0.000
1091.29	0.490
1091.70	-0.000
1092.12	0.800
1092.53	1.061
1092.94	-0.000
1093.36	0.739
1093.77	0.578
1094.18	-0.000
1094.59	0.353
1095.01	0.845
1095.42	-0.000
1095.83	0.524
1096.25	-0.000
1096.66	1.121
1097.07	0.611
1097.48	-0.000
1097.90	0.942
1098.31	0.615
1098.72	1.222
1099.13	-0.000
>>>>>End Processed Spectral Data<<<<<
