SpectraSuite Data File
++++++++++++++++++++++++++++++++++++
Date: Sun Apr 24 15:19:37 CEST 2016
User: spectrasuite
Dark Spectrum Present: Yes
Reference Spectrum Present: Yes
Number of Sampled Component Spectra: 1
Spectrometers: HR+C0708
Integration Time (usec): 1000 (HR+C0708)
Spectra Averaged: 10 (HR+C0708)
Boxcar Smoothing: 0 (HR+C0708)
Correct for Electrical Dark: No (HR+C0708)
Strobe/Lamp Enabled: No (HR+C0708)
Correct for Detector Non-linearity: No (HR+C0708)
Correct for Stray Light: No (HR+C0708)
Number of Pixels in Processed Spectrum: 2048
>>>>>Begin Processed Spectral Data<<<<<
188.76	-0.000
189.23	-0.000
189.70	-0.000
190.17	-0.000
190.64	-0.000
191.12	-0.000
191.59	-0.000
192.06	-0.000
192.53	-0.000
193.01	-0.000
193.48	-0.000
193.95	-0.000
194.42	-0.000
194.90	-0.000
195.37	-0.000
195.84	-0.000
196.31	-0.000
196.78	-0.000
197.26	-0.000
197.73	-0.000
198.20	-0.000
198.67	-0.000
199.14	-0.000
199.62	-0.000
200.09	-0.000
200.56	-0.000
201.03	1.033
201.50	-0.000
201.97	-0.000
202.45	-0.000
202.92	1.237
203.39	1.157
203.86	-0.000
204.33	-0.000
204.80	-0.000
205.28	1.418
205.75	-0.000
206.22	1.446
206.69	1.416
207.16	1.647
207.63	0.828
208.11	0.663
208.58	1.034
209.05	2.014
209.52	2.712
209.99	1.719
210.46	1.759
210.93	1.490
211.41	1.118
211.88	1.224
212.35	-0.000
212.82	-0.000
213.29	-0.000
213.76	0.980
214.23	-0.000
214.70	-0.000
215.18	1.373
215.65	2.442
216.12	-0.000
216.59	-0.000
217.06	0.898
217.53	1.116
218.00	1.113
218.47	-0.000
218.94	-0.000
219.41	-0.000
219.89	-0.000
220.36	-0.000
220.83	1.194
221.30	-0.000
221.77	1.745
222.24	1.409
222.71	-0.000
223.18	2.599
223.65	2.453
224.12	-0.000
224.59	-0.000
225.06	-0.000
225.54	1.197
226.01	1.846
226.48	1.656
226.95	1.624
227.42	1.618
227.89	-0.000
228.36	1.420
228.83	1.664
229.30	1.639
229.77	-0.000
230.24	1.586
230.71	-0.000
231.18	-0.000
231.65	3.241
232.12	2.628
232.59	1.754
233.06	-0.000
233.53	2.477
234.00	2.108
234.47	2.383
234.94	-0.000
235.41	2.422
235.88	-0.000
236.35	-0.000
236.82	2.852
237.29	2.781
237.76	2.799
238.23	3.039
238.70	2.636
239.17	2.279
239.64	2.415
240.11	-0.000
240.58	3.186
241.05	-0.000
241.52	-0.000
241.99	2.963
242.46	2.691
242.93	-0.000
243.40	4.582
243.87	2.703
244.34	2.403
244.81	3.197
245.28	-0.000
245.75	-0.000
246.22	4.190
246.69	3.159
247.16	-0.000
247.63	3.074
248.10	3.371
248.57	-0.000
249.04	-0.000
249.51	3.274
249.98	-0.000
250.45	3.157
250.92	2.839
251.39	-0.000
251.85	-0.000
252.32	-0.000
252.79	3.708
253.26	3.149
253.73	-0.000
254.20	3.235
254.67	2.676
255.14	3.008
255.61	3.381
256.08	3.079
256.55	4.380
257.02	3.569
257.49	-0.000
257.95	3.309
258.42	3.258
258.89	3.352
259.36	3.019
259.83	3.656
260.30	-0.000
260.77	-0.000
261.24	2.819
261.71	-0.000
262.17	-0.000
262.64	2.940
263.11	3.064
263.58	-0.000
264.05	3.008
264.52	3.152
264.99	3.001
265.46	3.262
265.92	2.983
266.39	3.263
266.86	3.758
267.33	3.260
267.80	2.738
268.27	3.000
268.74	3.163
269.20	4.130
269.67	2.907
270.14	2.769
270.61	2.831
271.08	2.810
271.55	2.781
272.01	3.101
272.48	2.709
272.95	2.913
273.42	2.702
273.89	2.813
274.36	2.792
274.82	2.653
275.29	2.632
275.76	2.700
276.23	2.712
276.70	2.664
277.16	2.798
277.63	2.655
278.10	2.646
278.57	2.629
279.04	2.561
279.50	2.617
279.97	2.568
280.44	2.443
280.91	2.520
281.38	2.408
281.84	2.521
282.31	2.560
282.78	2.624
283.25	2.441
283.72	2.423
284.18	2.494
284.65	2.441
285.12	2.439
285.59	2.398
286.05	2.446
286.52	2.454
286.99	2.395
287.46	2.405
287.92	2.340
288.39	2.305
288.86	2.396
289.33	2.341
289.79	2.355
290.26	2.320
290.73	2.336
291.20	2.325
291.66	2.333
292.13	2.282
292.60	2.238
293.07	2.207
293.53	2.197
294.00	2.280
294.47	2.244
294.93	2.174
295.40	2.260
295.87	2.260
296.34	2.214
296.80	2.160
297.27	2.190
297.74	2.220
298.20	2.195
298.67	2.114
299.14	2.204
299.60	2.141
300.07	2.157
300.54	2.139
301.01	2.093
301.47	2.053
301.94	2.089
302.41	2.079
302.87	2.075
303.34	2.142
303.81	2.076
304.27	2.090
304.74	2.030
305.21	2.064
305.67	2.036
306.14	2.003
306.61	2.035
307.07	1.993
307.54	2.008
308.01	2.005
308.47	1.973
308.94	2.047
309.40	2.031
309.87	1.975
310.34	1.968
310.80	2.005
311.27	1.981
311.74	1.931
312.20	1.970
312.67	1.956
313.13	1.919
313.60	1.989
314.07	1.941
314.53	1.919
315.00	1.874
315.47	1.921
315.93	1.907
316.40	1.880
316.86	1.879
317.33	1.883
317.80	1.889
318.26	1.873
318.73	1.867
319.19	1.887
319.66	1.862
320.13	1.836
320.59	1.811
321.06	1.816
321.52	1.856
321.99	1.810
322.45	1.796
322.92	1.800
323.39	1.803
323.85	1.819
324.32	1.788
324.78	1.782
325.25	1.794
325.71	1.735
326.18	1.744
326.64	1.782
327.11	1.752
327.58	1.717
328.04	1.710
328.51	1.748
328.97	1.735
329.44	1.700
329.90	1.663
330.37	1.691
330.83	1.639
331.30	1.677
331.76	1.638
332.23	1.616
332.69	1.628
333.16	1.621
333.62	1.604
334.09	1.582
334.56	1.566
335.02	1.555
335.49	1.543
335.95	1.512
336.42	1.500
336.88	1.476
337.35	1.466
337.81	1.447
338.28	1.440
338.74	1.411
339.20	1.406
339.67	1.378
340.13	1.362
340.60	1.334
341.06	1.317
341.53	1.294
341.99	1.282
342.46	1.253
342.92	1.226
343.39	1.202
343.85	1.191
344.32	1.163
344.78	1.151
345.25	1.133
345.71	1.106
346.17	1.090
346.64	1.074
347.10	1.042
347.57	1.015
348.03	0.992
348.50	0.972
348.96	0.956
349.43	0.935
349.89	0.920
350.35	0.903
350.82	0.889
351.28	0.873
351.75	0.851
352.21	0.848
352.67	0.828
353.14	0.815
353.60	0.794
354.07	0.786
354.53	0.766
355.00	0.758
355.46	0.750
355.92	0.735
356.39	0.718
356.85	0.717
357.31	0.706
357.78	0.696
358.24	0.687
358.71	0.675
359.17	0.671
359.63	0.665
360.10	0.661
360.56	0.656
361.03	0.647
361.49	0.643
361.95	0.638
362.42	0.633
362.88	0.626
363.34	0.622
363.81	0.616
364.27	0.612
364.73	0.610
365.20	0.609
365.66	0.606
366.12	0.604
366.59	0.599
367.05	0.594
367.51	0.590
367.98	0.588
368.44	0.587
368.90	0.588
369.37	0.584
369.83	0.580
370.29	0.579
370.76	0.577
371.22	0.572
371.68	0.572
372.15	0.567
372.61	0.566
373.07	0.562
373.54	0.564
374.00	0.560
374.46	0.560
374.92	0.558
375.39	0.554
375.85	0.556
376.31	0.557
376.78	0.552
377.24	0.549
377.70	0.550
378.16	0.542
378.63	0.543
379.09	0.541
379.55	0.537
380.01	0.540
380.48	0.534
380.94	0.536
381.40	0.534
381.87	0.530
382.33	0.531
382.79	0.531
383.25	0.528
383.72	0.526
384.18	0.523
384.64	0.522
385.10	0.518
385.56	0.517
386.03	0.515
386.49	0.513
386.95	0.511
387.41	0.515
387.88	0.509
388.34	0.511
388.80	0.506
389.26	0.506
389.72	0.503
390.19	0.506
390.65	0.499
391.11	0.498
391.57	0.497
392.04	0.496
392.50	0.493
392.96	0.493
393.42	0.494
393.88	0.494
394.34	0.491
394.81	0.489
395.27	0.489
395.73	0.489
396.19	0.483
396.65	0.481
397.12	0.483
397.58	0.481
398.04	0.479
398.50	0.480
398.96	0.474
399.42	0.478
399.89	0.477
400.35	0.474
400.81	0.471
401.27	0.470
401.73	0.467
402.19	0.465
402.65	0.467
403.12	0.463
403.58	0.464
404.04	0.465
404.50	0.463
404.96	0.462
405.42	0.458
405.88	0.459
406.34	0.456
406.81	0.454
407.27	0.455
407.73	0.456
408.19	0.452
408.65	0.453
409.11	0.447
409.57	0.451
410.03	0.445
410.49	0.449
410.96	0.446
411.42	0.442
411.88	0.441
412.34	0.438
412.80	0.438
413.26	0.434
413.72	0.436
414.18	0.434
414.64	0.436
415.10	0.436
415.56	0.435
416.02	0.433
416.48	0.431
416.95	0.426
417.41	0.428
417.87	0.428
418.33	0.424
418.79	0.422
419.25	0.422
419.71	0.421
420.17	0.422
420.63	0.421
421.09	0.419
421.55	0.418
422.01	0.419
422.47	0.415
422.93	0.418
423.39	0.418
423.85	0.416
424.31	0.411
424.77	0.410
425.23	0.414
425.69	0.414
426.15	0.410
426.61	0.407
427.07	0.403
427.53	0.403
427.99	0.401
428.45	0.405
428.91	0.406
429.37	0.401
429.83	0.400
430.29	0.400
430.75	0.400
431.21	0.401
431.67	0.399
432.13	0.397
432.59	0.394
433.05	0.398
433.51	0.391
433.97	0.394
434.43	0.394
434.89	0.390
435.35	0.393
435.81	0.390
436.27	0.388
436.73	0.391
437.19	0.387
437.65	0.387
438.11	0.382
438.57	0.384
439.03	0.385
439.48	0.382
439.94	0.379
440.40	0.380
440.86	0.381
441.32	0.376
441.78	0.381
442.24	0.379
442.70	0.377
443.16	0.374
443.62	0.370
444.08	0.373
444.54	0.377
444.99	0.369
445.45	0.371
445.91	0.370
446.37	0.371
446.83	0.368
447.29	0.369
447.75	0.366
448.21	0.366
448.67	0.364
449.12	0.364
449.58	0.366
450.04	0.361
450.50	0.360
450.96	0.365
451.42	0.359
451.88	0.357
452.34	0.360
452.79	0.356
453.25	0.357
453.71	0.359
454.17	0.353
454.63	0.358
455.09	0.355
455.55	0.352
456.00	0.349
456.46	0.350
456.92	0.348
457.38	0.351
457.84	0.348
458.30	0.346
458.75	0.347
459.21	0.345
459.67	0.347
460.13	0.346
460.59	0.343
461.04	0.341
461.50	0.345
461.96	0.341
462.42	0.341
462.88	0.341
463.33	0.339
463.79	0.338
464.25	0.339
464.71	0.337
465.17	0.336
465.62	0.338
466.08	0.336
466.54	0.337
467.00	0.338
467.46	0.335
467.91	0.334
468.37	0.331
468.83	0.332
469.29	0.333
469.74	0.333
470.20	0.331
470.66	0.328
471.12	0.326
471.57	0.328
472.03	0.327
472.49	0.328
472.95	0.328
473.40	0.324
473.86	0.322
474.32	0.322
474.78	0.325
475.23	0.321
475.69	0.325
476.15	0.318
476.60	0.322
477.06	0.319
477.52	0.319
477.98	0.317
478.43	0.319
478.89	0.316
479.35	0.317
479.80	0.318
480.26	0.314
480.72	0.316
481.18	0.313
481.63	0.313
482.09	0.314
482.55	0.313
483.00	0.309
483.46	0.310
483.92	0.310
484.37	0.311
484.83	0.310
485.29	0.308
485.74	0.307
486.20	0.308
486.66	0.307
487.11	0.306
487.57	0.305
488.03	0.303
488.48	0.305
488.94	0.302
489.40	0.304
489.85	0.302
490.31	0.304
490.77	0.301
491.22	0.300
491.68	0.300
492.13	0.299
492.59	0.298
493.05	0.300
493.50	0.297
493.96	0.297
494.42	0.297
494.87	0.295
495.33	0.294
495.78	0.296
496.24	0.295
496.70	0.293
497.15	0.292
497.61	0.294
498.06	0.293
498.52	0.286
498.98	0.290
499.43	0.293
499.89	0.291
500.34	0.289
500.80	0.289
501.25	0.289
501.71	0.286
502.17	0.288
502.62	0.289
503.08	0.287
503.53	0.282
503.99	0.284
504.44	0.284
504.90	0.285
505.36	0.283
505.81	0.283
506.27	0.283
506.72	0.283
507.18	0.281
507.63	0.278
508.09	0.282
508.54	0.275
509.00	0.279
509.45	0.278
509.91	0.277
510.36	0.278
510.82	0.276
511.27	0.275
511.73	0.278
512.19	0.276
512.64	0.273
513.10	0.276
513.55	0.276
514.01	0.271
514.46	0.273
514.92	0.273
515.37	0.271
515.83	0.273
516.28	0.270
516.73	0.269
517.19	0.270
517.64	0.266
518.10	0.267
518.55	0.268
519.01	0.269
519.46	0.269
519.92	0.268
520.37	0.265
520.83	0.264
521.28	0.266
521.74	0.266
522.19	0.265
522.65	0.262
523.10	0.266
523.55	0.264
524.01	0.265
524.46	0.261
524.92	0.261
525.37	0.261
525.83	0.262
526.28	0.258
526.73	0.260
527.19	0.263
527.64	0.262
528.10	0.259
528.55	0.257
529.01	0.260
529.46	0.255
529.91	0.257
530.37	0.256
530.82	0.257
531.28	0.255
531.73	0.252
532.18	0.254
532.64	0.254
533.09	0.253
533.54	0.253
534.00	0.251
534.45	0.254
534.91	0.253
535.36	0.252
535.81	0.251
536.27	0.250
536.72	0.251
537.17	0.249
537.63	0.249
538.08	0.249
538.54	0.250
538.99	0.247
539.44	0.247
539.90	0.246
540.35	0.246
540.80	0.244
541.26	0.247
541.71	0.245
542.16	0.245
542.62	0.245
543.07	0.246
543.52	0.245
543.98	0.244
544.43	0.245
544.88	0.244
545.34	0.242
545.79	0.241
546.24	0.241
546.69	0.244
547.15	0.240
547.60	0.240
548.05	0.239
548.51	0.239
548.96	0.240
549.41	0.240
549.86	0.237
550.32	0.240
550.77	0.237
551.22	0.237
551.68	0.237
552.13	0.237
552.58	0.235
553.03	0.237
553.49	0.237
553.94	0.235
554.39	0.236
554.84	0.235
555.30	0.235
555.75	0.236
556.20	0.232
556.65	0.233
557.11	0.233
557.56	0.231
558.01	0.234
558.46	0.234
558.92	0.230
559.37	0.231
559.82	0.231
560.27	0.230
560.72	0.228
561.18	0.228
561.63	0.227
562.08	0.225
562.53	0.230
562.99	0.228
563.44	0.228
563.89	0.226
564.34	0.230
564.79	0.228
565.25	0.226
565.70	0.224
566.15	0.225
566.60	0.223
567.05	0.224
567.50	0.223
567.96	0.224
568.41	0.222
568.86	0.221
569.31	0.221
569.76	0.219
570.21	0.221
570.67	0.221
571.12	0.221
571.57	0.220
572.02	0.218
572.47	0.217
572.92	0.218
573.37	0.217
573.83	0.215
574.28	0.217
574.73	0.216
575.18	0.217
575.63	0.218
576.08	0.215
576.53	0.215
576.98	0.216
577.44	0.212
577.89	0.213
578.34	0.215
578.79	0.212
579.24	0.214
579.69	0.213
580.14	0.209
580.59	0.212
581.04	0.211
581.49	0.211
581.95	0.211
582.40	0.210
582.85	0.209
583.30	0.207
583.75	0.209
584.20	0.209
584.65	0.210
585.10	0.209
585.55	0.208
586.00	0.208
586.45	0.208
586.90	0.209
587.35	0.208
587.80	0.207
588.25	0.206
588.71	0.207
589.16	0.206
589.61	0.204
590.06	0.206
590.51	0.205
590.96	0.205
591.41	0.204
591.86	0.205
592.31	0.202
592.76	0.204
593.21	0.203
593.66	0.204
594.11	0.202
594.56	0.201
595.01	0.201
595.46	0.203
595.91	0.202
596.36	0.202
596.81	0.201
597.26	0.201
597.71	0.202
598.16	0.200
598.61	0.199
599.06	0.201
599.51	0.201
599.96	0.199
600.41	0.201
600.86	0.199
601.31	0.199
601.76	0.200
602.21	0.200
602.65	0.200
603.10	0.200
603.55	0.197
604.00	0.197
604.45	0.198
604.90	0.197
605.35	0.195
605.80	0.196
606.25	0.197
606.70	0.196
607.15	0.194
607.60	0.194
608.05	0.193
608.50	0.195
608.95	0.192
609.39	0.195
609.84	0.193
610.29	0.193
610.74	0.193
611.19	0.192
611.64	0.191
612.09	0.191
612.54	0.190
612.99	0.193
613.44	0.189
613.88	0.193
614.33	0.190
614.78	0.188
615.23	0.189
615.68	0.188
616.13	0.189
616.58	0.189
617.03	0.188
617.47	0.189
617.92	0.187
618.37	0.187
618.82	0.187
619.27	0.186
619.72	0.187
620.17	0.184
620.61	0.185
621.06	0.186
621.51	0.185
621.96	0.184
622.41	0.185
622.86	0.185
623.30	0.183
623.75	0.184
624.20	0.184
624.65	0.183
625.10	0.183
625.54	0.185
625.99	0.184
626.44	0.182
626.89	0.183
627.34	0.184
627.78	0.182
628.23	0.181
628.68	0.181
629.13	0.180
629.58	0.181
630.02	0.180
630.47	0.180
630.92	0.180
631.37	0.180
631.81	0.181
632.26	0.181
632.71	0.179
633.16	0.177
633.61	0.178
634.05	0.177
634.50	0.178
634.95	0.179
635.40	0.180
635.84	0.181
636.29	0.178
636.74	0.177
637.18	0.179
637.63	0.178
638.08	0.177
638.53	0.176
638.97	0.176
639.42	0.177
639.87	0.178
640.32	0.174
640.76	0.177
641.21	0.176
641.66	0.175
642.10	0.176
642.55	0.175
643.00	0.174
643.44	0.174
643.89	0.175
644.34	0.174
644.79	0.172
645.23	0.174
645.68	0.174
646.13	0.172
646.57	0.173
647.02	0.171
647.47	0.175
647.91	0.171
648.36	0.172
648.81	0.173
649.25	0.172
649.70	0.170
650.15	0.172
650.59	0.171
651.04	0.172
651.48	0.173
651.93	0.170
652.38	0.168
652.82	0.170
653.27	0.169
653.72	0.172
654.16	0.168
654.61	0.171
655.06	0.169
655.50	0.168
655.95	0.166
656.39	0.163
656.84	0.165
657.29	0.170
657.73	0.167
658.18	0.170
658.62	0.169
659.07	0.169
659.52	0.166
659.96	0.168
660.41	0.169
660.85	0.165
661.30	0.166
661.74	0.167
662.19	0.167
662.64	0.165
663.08	0.166
663.53	0.165
663.97	0.164
664.42	0.164
664.86	0.165
665.31	0.165
665.75	0.165
666.20	0.166
666.65	0.165
667.09	0.163
667.54	0.163
667.98	0.164
668.43	0.164
668.87	0.162
669.32	0.162
669.76	0.164
670.21	0.162
670.65	0.160
671.10	0.161
671.54	0.162
671.99	0.160
672.43	0.161
672.88	0.162
673.32	0.162
673.77	0.160
674.21	0.159
674.66	0.161
675.10	0.159
675.55	0.158
675.99	0.160
676.44	0.160
676.88	0.159
677.33	0.158
677.77	0.160
678.22	0.159
678.66	0.158
679.11	0.156
679.55	0.161
679.99	0.156
680.44	0.158
680.88	0.155
681.33	0.156
681.77	0.157
682.22	0.158
682.66	0.156
683.11	0.157
683.55	0.156
683.99	0.156
684.44	0.155
684.88	0.153
685.33	0.156
685.77	0.157
686.21	0.153
686.66	0.155
687.10	0.153
687.55	0.153
687.99	0.156
688.44	0.154
688.88	0.153
689.32	0.155
689.77	0.153
690.21	0.152
690.65	0.153
691.10	0.152
691.54	0.151
691.99	0.152
692.43	0.152
692.87	0.151
693.32	0.153
693.76	0.154
694.20	0.152
694.65	0.149
695.09	0.152
695.53	0.149
695.98	0.152
696.42	0.150
696.86	0.151
697.31	0.149
697.75	0.151
698.19	0.149
698.64	0.149
699.08	0.150
699.52	0.148
699.97	0.148
700.41	0.151
700.85	0.147
701.30	0.147
701.74	0.148
702.18	0.148
702.63	0.147
703.07	0.149
703.51	0.150
703.96	0.148
704.40	0.147
704.84	0.150
705.28	0.148
705.73	0.148
706.17	0.149
706.61	0.146
707.06	0.148
707.50	0.145
707.94	0.147
708.38	0.144
708.83	0.149
709.27	0.148
709.71	0.148
710.15	0.148
710.60	0.148
711.04	0.146
711.48	0.147
711.92	0.146
712.37	0.145
712.81	0.147
713.25	0.145
713.69	0.146
714.13	0.144
714.58	0.146
715.02	0.145
715.46	0.144
715.90	0.144
716.35	0.142
716.79	0.145
717.23	0.145
717.67	0.145
718.11	0.147
718.56	0.146
719.00	0.146
719.44	0.147
719.88	0.147
720.32	0.144
720.76	0.145
721.21	0.142
721.65	0.142
722.09	0.143
722.53	0.145
722.97	0.147
723.41	0.142
723.86	0.146
724.30	0.145
724.74	0.146
725.18	0.144
725.62	0.144
726.06	0.146
726.50	0.142
726.95	0.145
727.39	0.144
727.83	0.141
728.27	0.143
728.71	0.143
729.15	0.145
729.59	0.145
730.03	0.142
730.48	0.144
730.92	0.145
731.36	0.143
731.80	0.144
732.24	0.144
732.68	0.143
733.12	0.142
733.56	0.143
734.00	0.145
734.44	0.144
734.89	0.147
735.33	0.145
735.77	0.147
736.21	0.146
736.65	0.141
737.09	0.146
737.53	0.146
737.97	0.143
738.41	0.144
738.85	0.148
739.29	0.144
739.73	0.143
740.17	0.143
740.61	0.144
741.05	0.144
741.49	0.144
741.93	0.145
742.37	0.142
742.81	0.143
743.26	0.144
743.70	0.145
744.14	0.144
744.58	0.142
745.02	0.144
745.46	0.144
745.90	0.142
746.34	0.141
746.78	0.143
747.22	0.141
747.66	0.143
748.10	0.143
748.54	0.140
748.98	0.140
749.42	0.142
749.86	0.141
750.29	0.142
750.73	0.139
751.17	0.140
751.61	0.140
752.05	0.143
752.49	0.138
752.93	0.140
753.37	0.138
753.81	0.139
754.25	0.140
754.69	0.139
755.13	0.135
755.57	0.140
756.01	0.139
756.45	0.141
756.89	0.137
757.33	0.137
757.77	0.141
758.21	0.139
758.64	0.136
759.08	0.134
759.52	0.136
759.96	0.139
760.40	0.137
760.84	0.135
761.28	0.138
761.72	0.140
762.16	0.138
762.60	0.136
763.03	0.136
763.47	0.136
763.91	0.136
764.35	0.137
764.79	0.136
765.23	0.135
765.67	0.134
766.11	0.133
766.54	0.132
766.98	0.136
767.42	0.136
767.86	0.132
768.30	0.136
768.74	0.137
769.17	0.139
769.61	0.136
770.05	0.139
770.49	0.138
770.93	0.138
771.37	0.132
771.80	0.134
772.24	0.136
772.68	0.132
773.12	0.133
773.56	0.133
774.00	0.132
774.43	0.132
774.87	0.134
775.31	0.133
775.75	0.132
776.19	0.132
776.62	0.132
777.06	0.133
777.50	0.133
777.94	0.131
778.37	0.130
778.81	0.133
779.25	0.135
779.69	0.133
780.13	0.134
780.56	0.131
781.00	0.128
781.44	0.131
781.88	0.132
782.31	0.131
782.75	0.133
783.19	0.131
783.63	0.130
784.06	0.131
784.50	0.134
784.94	0.128
785.37	0.130
785.81	0.135
786.25	0.132
786.69	0.131
787.12	0.132
787.56	0.129
788.00	0.133
788.43	0.132
788.87	0.130
789.31	0.130
789.75	0.130
790.18	0.127
790.62	0.126
791.06	0.129
791.49	0.129
791.93	0.127
792.37	0.130
792.80	0.129
793.24	0.128
793.68	0.132
794.11	0.128
794.55	0.130
794.99	0.133
795.42	0.128
795.86	0.131
796.30	0.129
796.73	0.130
797.17	0.128
797.61	0.126
798.04	0.128
798.48	0.127
798.91	0.127
799.35	0.125
799.79	0.132
800.22	0.127
800.66	0.126
801.10	0.128
801.53	0.129
801.97	0.129
802.40	0.128
802.84	0.128
803.28	0.123
803.71	0.128
804.15	0.126
804.58	0.128
805.02	0.127
805.46	0.126
805.89	0.126
806.33	0.128
806.76	0.125
807.20	0.127
807.63	0.126
808.07	0.131
808.51	0.124
808.94	0.122
809.38	0.123
809.81	0.125
810.25	0.127
810.68	0.129
811.12	0.125
811.55	0.127
811.99	0.126
812.42	0.128
812.86	0.125
813.29	0.127
813.73	0.125
814.17	0.121
814.60	0.128
815.04	0.126
815.47	0.129
815.91	0.124
816.34	0.126
816.78	0.125
817.21	0.129
817.65	0.126
818.08	0.124
818.52	0.123
818.95	0.124
819.39	0.121
819.82	0.124
820.25	0.125
820.69	0.126
821.12	0.128
821.56	0.126
821.99	0.123
822.43	0.123
822.86	0.127
823.30	0.126
823.73	0.123
824.17	0.123
824.60	0.123
825.04	0.126
825.47	0.122
825.90	0.124
826.34	0.125
826.77	0.126
827.21	0.126
827.64	0.127
828.08	0.126
828.51	0.122
828.94	0.125
829.38	0.122
829.81	0.129
830.25	0.130
830.68	0.128
831.11	0.128
831.55	0.128
831.98	0.128
832.42	0.129
832.85	0.126
833.28	0.131
833.72	0.130
834.15	0.128
834.58	0.129
835.02	0.128
835.45	0.131
835.88	0.129
836.32	0.125
836.75	0.127
837.19	0.130
837.62	0.130
838.05	0.129
838.49	0.132
838.92	0.128
839.35	0.132
839.79	0.126
840.22	0.130
840.65	0.126
841.09	0.130
841.52	0.128
841.95	0.128
842.39	0.131
842.82	0.125
843.25	0.132
843.68	0.126
844.12	0.128
844.55	0.126
844.98	0.129
845.42	0.128
845.85	0.127
846.28	0.131
846.71	0.127
847.15	0.131
847.58	0.129
848.01	0.130
848.45	0.130
848.88	0.132
849.31	0.130
849.74	0.129
850.18	0.129
850.61	0.127
851.04	0.131
851.47	0.129
851.91	0.126
852.34	0.128
852.77	0.131
853.20	0.130
853.64	0.129
854.07	0.128
854.50	0.126
854.93	0.128
855.36	0.132
855.80	0.125
856.23	0.129
856.66	0.133
857.09	0.130
857.52	0.128
857.96	0.121
858.39	0.130
858.82	0.129
859.25	0.131
859.68	0.130
860.12	0.126
860.55	0.126
860.98	0.132
861.41	0.129
861.84	0.128
862.27	0.128
862.71	0.125
863.14	0.130
863.57	0.131
864.00	0.126
864.43	0.132
864.86	0.128
865.30	0.134
865.73	0.132
866.16	0.127
866.59	0.132
867.02	0.129
867.45	0.129
867.88	0.131
868.31	0.129
868.75	0.132
869.18	0.135
869.61	0.134
870.04	0.131
870.47	0.129
870.90	0.131
871.33	0.134
871.76	0.131
872.19	0.135
872.62	0.127
873.06	0.129
873.49	0.130
873.92	0.131
874.35	0.132
874.78	0.134
875.21	0.129
875.64	0.127
876.07	0.138
876.50	0.131
876.93	0.136
877.36	0.134
877.79	0.133
878.22	0.127
878.65	0.132
879.08	0.130
879.51	0.134
879.94	0.132
880.37	0.133
880.80	0.137
881.23	0.126
881.67	0.137
882.10	0.133
882.53	0.130
882.96	0.134
883.39	0.134
883.82	0.132
884.25	0.129
884.68	0.135
885.11	0.134
885.54	0.141
885.97	0.136
886.39	0.131
886.82	0.137
887.25	0.130
887.68	0.129
888.11	0.130
888.54	0.133
888.97	0.136
889.40	0.133
889.83	0.135
890.26	0.135
890.69	0.128
891.12	0.130
891.55	0.137
891.98	0.134
892.41	0.131
892.84	0.131
893.27	0.136
893.70	0.129
894.13	0.133
894.56	0.131
894.98	0.135
895.41	0.136
895.84	0.131
896.27	0.135
896.70	0.137
897.13	0.134
897.56	0.134
897.99	0.135
898.42	0.134
898.85	0.137
899.27	0.133
899.70	0.137
900.13	0.131
900.56	0.135
900.99	0.139
901.42	0.140
901.85	0.137
902.28	0.135
902.70	0.138
903.13	0.137
903.56	0.137
903.99	0.131
904.42	0.136
904.85	0.136
905.27	0.134
905.70	0.138
906.13	0.139
906.56	0.134
906.99	0.138
907.42	0.134
907.84	0.131
908.27	0.133
908.70	0.140
909.13	0.137
909.56	0.135
909.98	0.137
910.41	0.136
910.84	0.135
911.27	0.139
911.70	0.133
912.12	0.131
912.55	0.134
912.98	0.137
913.41	0.136
913.84	0.135
914.26	0.130
914.69	0.136
915.12	0.137
915.55	0.131
915.97	0.136
916.40	0.134
916.83	0.134
917.26	0.134
917.68	0.137
918.11	0.136
918.54	0.133
918.97	0.135
919.39	0.136
919.82	0.139
920.25	0.133
920.67	0.137
921.10	0.139
921.53	0.138
921.96	0.139
922.38	0.138
922.81	0.138
923.24	0.140
923.66	0.138
924.09	0.139
924.52	0.140
924.94	0.141
925.37	0.140
925.80	0.145
926.22	0.143
926.65	0.141
927.08	0.142
927.50	0.143
927.93	0.143
928.36	0.135
928.78	0.143
929.21	0.143
929.64	0.147
930.06	0.149
930.49	0.148
930.92	0.151
931.34	0.150
931.77	0.151
932.20	0.147
932.62	0.153
933.05	0.152
933.47	0.155
933.90	0.153
934.33	0.148
934.75	0.155
935.18	0.161
935.61	0.156
936.03	0.159
936.46	0.159
936.88	0.163
937.31	0.164
937.73	0.164
938.16	0.163
938.59	0.168
939.01	0.174
939.44	0.175
939.86	0.173
940.29	0.173
940.71	0.176
941.14	0.180
941.57	0.178
941.99	0.179
942.42	0.183
942.84	0.189
943.27	0.189
943.69	0.184
944.12	0.182
944.54	0.201
944.97	0.191
945.39	0.191
945.82	0.192
946.24	0.201
946.67	0.196
947.09	0.201
947.52	0.203
947.94	0.204
948.37	0.212
948.79	0.207
949.22	0.215
949.64	0.211
950.07	0.216
950.49	0.222
950.92	0.217
951.34	0.221
951.77	0.219
952.19	0.221
952.62	0.232
953.04	0.237
953.47	0.240
953.89	0.236
954.32	0.250
954.74	0.241
955.17	0.241
955.59	0.251
956.01	0.249
956.44	0.253
956.86	0.254
957.29	0.263
957.71	0.264
958.14	0.263
958.56	0.267
958.98	0.272
959.41	0.270
959.83	0.269
960.26	0.271
960.68	0.273
961.10	0.279
961.53	0.283
961.95	0.284
962.38	0.281
962.80	0.277
963.22	0.287
963.65	0.283
964.07	0.282
964.50	0.293
964.92	0.285
965.34	0.288
965.77	0.287
966.19	0.292
966.61	0.293
967.04	0.288
967.46	0.292
967.88	0.290
968.31	0.286
968.73	0.291
969.15	0.287
969.58	0.289
970.00	0.287
970.42	0.289
970.85	0.284
971.27	0.292
971.69	0.285
972.12	0.295
972.54	0.295
972.96	0.291
973.39	0.295
973.81	0.296
974.23	0.290
974.65	0.289
975.08	0.294
975.50	0.295
975.92	0.295
976.35	0.297
976.77	0.298
977.19	0.299
977.61	0.295
978.04	0.289
978.46	0.299
978.88	0.297
979.30	0.296
979.73	0.287
980.15	0.293
980.57	0.294
980.99	0.294
981.42	0.292
981.84	0.298
982.26	0.294
982.68	0.290
983.11	0.298
983.53	0.294
983.95	0.291
984.37	0.295
984.79	0.292
985.22	0.296
985.64	0.291
986.06	0.288
986.48	0.293
986.90	0.288
987.33	0.280
987.75	0.281
988.17	0.284
988.59	0.286
989.01	0.288
989.43	0.277
989.86	0.287
990.28	0.287
990.70	0.291
991.12	0.284
991.54	0.284
991.96	0.282
992.39	0.282
992.81	0.283
993.23	0.277
993.65	0.281
994.07	0.279
994.49	0.278
994.91	0.275
995.34	0.271
995.76	0.274
996.18	0.275
996.60	0.277
997.02	0.272
997.44	0.276
997.86	0.274
998.28	0.270
998.70	0.272
999.12	0.272
999.55	0.263
999.97	0.266
1000.39	0.271
1000.81	0.267
1001.23	0.264
1001.65	0.273
1002.07	0.273
1002.49	0.268
1002.91	0.262
1003.33	0.260
1003.75	0.261
1004.17	0.270
1004.59	0.264
1005.01	0.263
1005.43	0.263
1005.85	0.258
1006.28	0.258
1006.70	0.255
1007.12	0.251
1007.54	0.252
1007.96	0.252
1008.38	0.253
1008.80	0.255
1009.22	0.248
1009.64	0.252
1010.06	0.252
1010.48	0.256
1010.90	0.254
1011.32	0.232
1011.74	0.236
1012.16	0.243
1012.58	0.246
1013.00	0.237
1013.42	0.247
1013.84	0.247
1014.26	0.236
1014.67	0.248
1015.09	0.239
1015.51	0.246
1015.93	0.238
1016.35	0.232
1016.77	0.235
1017.19	0.232
1017.61	0.231
1018.03	0.241
1018.45	0.235
1018.87	0.235
1019.29	0.244
1019.71	0.227
1020.13	0.231
1020.55	0.233
1020.97	0.222
1021.38	0.218
1021.80	0.221
1022.22	0.230
1022.64	0.226
1023.06	0.211
1023.48	0.218
1023.90	0.221
1024.32	0.207
1024.74	0.210
1025.15	0.219
1025.57	0.218
1025.99	0.211
1026.41	0.220
1026.83	0.214
1027.25	0.219
1027.67	0.215
1028.08	0.212
1028.50	0.215
1028.92	0.216
1029.34	0.200
1029.76	0.225
1030.18	0.204
1030.60	0.206
1031.01	0.197
1031.43	0.209
1031.85	0.213
1032.27	0.210
1032.69	0.200
1033.10	0.209
1033.52	0.194
1033.94	0.191
1034.36	0.194
1034.78	0.196
1035.19	0.206
1035.61	0.192
1036.03	0.206
1036.45	0.198
1036.87	0.200
1037.28	0.199
1037.70	0.209
1038.12	0.189
1038.54	0.190
1038.95	0.183
1039.37	0.198
1039.79	0.189
1040.21	0.202
1040.62	0.197
1041.04	0.182
1041.46	0.189
1041.88	0.194
1042.29	0.208
1042.71	0.188
1043.13	0.194
1043.55	0.185
1043.96	0.198
1044.38	0.202
1044.80	0.199
1045.21	0.192
1045.63	0.175
1046.05	0.178
1046.47	0.186
1046.88	0.177
1047.30	0.201
1047.72	0.170
1048.13	0.188
1048.55	0.178
1048.97	0.167
1049.38	0.183
1049.80	0.183
1050.22	0.189
1050.63	0.168
1051.05	0.182
1051.47	0.182
1051.88	0.175
1052.30	0.189
1052.72	0.179
1053.13	0.198
1053.55	0.198
1053.97	0.163
1054.38	0.185
1054.80	0.198
1055.21	0.184
1055.63	0.165
1056.05	0.189
1056.46	0.158
1056.88	0.183
1057.29	0.194
1057.71	0.214
1058.13	0.209
1058.54	0.186
1058.96	0.201
1059.37	0.185
1059.79	0.221
1060.21	0.179
1060.62	0.168
1061.04	0.192
1061.45	0.226
1061.87	0.175
1062.28	0.181
1062.70	0.262
1063.12	0.182
1063.53	0.207
1063.95	0.217
1064.36	0.250
1064.78	0.266
1065.19	0.180
1065.61	0.215
1066.02	0.226
1066.44	0.220
1066.85	0.270
1067.27	0.263
1067.68	0.229
1068.10	0.251
1068.51	0.231
1068.93	0.277
1069.35	0.407
1069.76	0.287
1070.17	0.273
1070.59	0.296
1071.00	0.236
1071.42	0.221
1071.83	0.275
1072.25	0.354
1072.66	0.329
1073.08	0.329
1073.49	0.407
1073.91	0.600
1074.32	0.431
1074.74	0.339
1075.15	0.365
1075.57	0.343
1075.98	0.449
1076.40	0.267
1076.81	0.393
1077.22	0.341
1077.64	0.606
1078.05	0.494
1078.47	0.357
1078.88	0.532
1079.30	0.943
1079.71	-0.000
1080.12	0.572
1080.54	-0.000
1080.95	1.087
1081.37	-0.000
1081.78	0.355
1082.19	0.985
1082.61	-0.000
1083.02	0.914
1083.44	0.576
1083.85	0.787
1084.26	-0.000
1084.68	-0.000
1085.09	0.437
1085.50	-0.000
1085.92	-0.000
1086.33	0.899
1086.74	-0.000
1087.16	-0.000
1087.57	-0.000
1087.98	-0.000
1088.40	1.148
1088.81	-0.000
1089.22	-0.000
1089.64	0.560
1090.05	0.982
1090.46	-0.000
1090.88	-0.000
1091.29	-0.000
1091.70	-0.000
1092.12	-0.000
1092.53	-0.000
1092.94	-0.000
1093.36	-0.000
1093.77	-0.000
1094.18	-0.000
1094.59	-0.000
1095.01	-0.000
1095.42	-0.000
1095.83	-0.000
1096.25	-0.000
1096.66	-0.000
1097.07	-0.000
1097.48	-0.000
1097.90	-0.000
1098.31	-0.000
1098.72	-0.000
1099.13	-0.000
>>>>>End Processed Spectral Data<<<<<
