SpectraSuite Data File
++++++++++++++++++++++++++++++++++++
Date: Sun Apr 24 12:56:59 CEST 2016
User: spectrasuite
Dark Spectrum Present: Yes
Reference Spectrum Present: Yes
Number of Sampled Component Spectra: 1
Spectrometers: HR+C0708
Integration Time (usec): 1000 (HR+C0708)
Spectra Averaged: 10 (HR+C0708)
Boxcar Smoothing: 0 (HR+C0708)
Correct for Electrical Dark: No (HR+C0708)
Strobe/Lamp Enabled: No (HR+C0708)
Correct for Detector Non-linearity: No (HR+C0708)
Correct for Stray Light: No (HR+C0708)
Number of Pixels in Processed Spectrum: 2048
>>>>>Begin Processed Spectral Data<<<<<
188.76	1.307
189.23	-0.000
189.70	-0.000
190.17	1.760
190.64	-0.000
191.12	-0.000
191.59	0.929
192.06	-0.000
192.53	0.490
193.01	-0.000
193.48	1.684
193.95	-0.000
194.42	-0.000
194.90	0.519
195.37	1.391
195.84	-0.000
196.31	0.925
196.78	-0.000
197.26	-0.000
197.73	-0.000
198.20	0.790
198.67	-0.000
199.14	0.646
199.62	1.013
200.09	0.437
200.56	1.172
201.03	0.570
201.50	0.665
201.97	0.524
202.45	0.744
202.92	0.639
203.39	0.623
203.86	0.564
204.33	0.639
204.80	0.460
205.28	0.637
205.75	0.982
206.22	0.793
206.69	0.654
207.16	0.643
207.63	0.618
208.11	0.578
208.58	0.537
209.05	0.539
209.52	0.563
209.99	0.424
210.46	0.583
210.93	0.961
211.41	0.508
211.88	0.497
212.35	0.639
212.82	1.319
213.29	0.491
213.76	0.725
214.23	0.672
214.70	0.754
215.18	0.588
215.65	0.937
216.12	0.736
216.59	0.536
217.06	0.584
217.53	0.400
218.00	0.755
218.47	0.700
218.94	0.684
219.41	0.569
219.89	1.044
220.36	0.860
220.83	0.741
221.30	0.868
221.77	0.604
222.24	0.867
222.71	0.863
223.18	-0.000
223.65	0.790
224.12	1.107
224.59	-0.000
225.06	1.087
225.54	0.976
226.01	0.828
226.48	1.143
226.95	1.034
227.42	1.067
227.89	1.559
228.36	1.247
228.83	1.215
229.30	1.301
229.77	1.473
230.24	1.327
230.71	1.616
231.18	1.546
231.65	1.642
232.12	1.399
232.59	1.561
233.06	1.635
233.53	1.840
234.00	1.587
234.47	1.903
234.94	-0.000
235.41	1.869
235.88	1.966
236.35	2.086
236.82	2.036
237.29	1.869
237.76	2.164
238.23	2.191
238.70	2.130
239.17	2.034
239.64	2.203
240.11	2.646
240.58	2.151
241.05	2.282
241.52	2.654
241.99	3.157
242.46	2.265
242.93	2.516
243.40	2.533
243.87	2.350
244.34	2.154
244.81	2.482
245.28	3.126
245.75	2.695
246.22	2.626
246.69	2.544
247.16	2.488
247.63	2.382
248.10	2.390
248.57	2.929
249.04	2.604
249.51	2.746
249.98	2.637
250.45	2.638
250.92	2.465
251.39	2.529
251.85	2.652
252.32	2.822
252.79	2.520
253.26	2.479
253.73	3.194
254.20	2.378
254.67	2.488
255.14	2.590
255.61	2.637
256.08	2.708
256.55	2.673
257.02	2.767
257.49	2.794
257.95	2.688
258.42	2.798
258.89	2.764
259.36	2.626
259.83	2.658
260.30	3.035
260.77	2.888
261.24	2.629
261.71	2.911
262.17	2.770
262.64	2.649
263.11	2.939
263.58	3.187
264.05	2.977
264.52	2.716
264.99	2.731
265.46	2.721
265.92	2.889
266.39	2.669
266.86	2.993
267.33	2.920
267.80	2.556
268.27	2.991
268.74	2.798
269.20	2.814
269.67	2.829
270.14	2.642
270.61	2.741
271.08	2.760
271.55	2.763
272.01	2.725
272.48	2.834
272.95	2.585
273.42	2.651
273.89	2.870
274.36	2.688
274.82	2.520
275.29	2.612
275.76	2.613
276.23	2.618
276.70	2.584
277.16	2.432
277.63	2.582
278.10	2.701
278.57	2.672
279.04	2.594
279.50	2.619
279.97	2.610
280.44	2.455
280.91	2.565
281.38	2.523
281.84	2.592
282.31	2.743
282.78	2.679
283.25	2.558
283.72	2.469
284.18	2.550
284.65	2.673
285.12	2.539
285.59	2.489
286.05	2.645
286.52	2.529
286.99	2.476
287.46	2.598
287.92	2.753
288.39	2.481
288.86	2.566
289.33	2.546
289.79	2.549
290.26	2.534
290.73	2.508
291.20	2.534
291.66	2.521
292.13	2.543
292.60	2.542
293.07	2.441
293.53	2.374
294.00	2.564
294.47	2.575
294.93	2.500
295.40	2.507
295.87	2.500
296.34	2.502
296.80	2.353
297.27	2.469
297.74	2.496
298.20	2.513
298.67	2.343
299.14	2.542
299.60	2.478
300.07	2.377
300.54	2.465
301.01	2.390
301.47	2.350
301.94	2.298
302.41	2.355
302.87	2.374
303.34	2.429
303.81	2.350
304.27	2.313
304.74	2.323
305.21	2.286
305.67	2.324
306.14	2.270
306.61	2.357
307.07	2.295
307.54	2.235
308.01	2.413
308.47	2.337
308.94	2.404
309.40	2.309
309.87	2.313
310.34	2.317
310.80	2.373
311.27	2.434
311.74	2.385
312.20	2.379
312.67	2.295
313.13	2.299
313.60	2.331
314.07	2.366
314.53	2.288
315.00	2.246
315.47	2.336
315.93	2.367
316.40	2.244
316.86	2.294
317.33	2.298
317.80	2.206
318.26	2.318
318.73	2.253
319.19	2.253
319.66	2.255
320.13	2.209
320.59	2.176
321.06	2.220
321.52	2.171
321.99	2.152
322.45	2.072
322.92	2.032
323.39	2.082
323.85	2.028
324.32	1.998
324.78	2.001
325.25	1.987
325.71	1.896
326.18	1.849
326.64	1.865
327.11	1.788
327.58	1.741
328.04	1.699
328.51	1.675
328.97	1.637
329.44	1.568
329.90	1.519
330.37	1.466
330.83	1.398
331.30	1.358
331.76	1.305
332.23	1.260
332.69	1.200
333.16	1.140
333.62	1.091
334.09	1.036
334.56	0.984
335.02	0.923
335.49	0.879
335.95	0.829
336.42	0.776
336.88	0.735
337.35	0.695
337.81	0.653
338.28	0.620
338.74	0.588
339.20	0.549
339.67	0.518
340.13	0.485
340.60	0.449
341.06	0.417
341.53	0.392
341.99	0.367
342.46	0.345
342.92	0.318
343.39	0.298
343.85	0.282
344.32	0.268
344.78	0.257
345.25	0.240
345.71	0.229
346.17	0.214
346.64	0.203
347.10	0.187
347.57	0.173
348.03	0.161
348.50	0.151
348.96	0.146
349.43	0.139
349.89	0.138
350.35	0.127
350.82	0.123
351.28	0.122
351.75	0.114
352.21	0.110
352.67	0.108
353.14	0.105
353.60	0.104
354.07	0.101
354.53	0.095
355.00	0.096
355.46	0.093
355.92	0.089
356.39	0.087
356.85	0.086
357.31	0.084
357.78	0.084
358.24	0.077
358.71	0.079
359.17	0.079
359.63	0.078
360.10	0.077
360.56	0.077
361.03	0.076
361.49	0.075
361.95	0.077
362.42	0.074
362.88	0.072
363.34	0.072
363.81	0.072
364.27	0.071
364.73	0.070
365.20	0.072
365.66	0.071
366.12	0.068
366.59	0.070
367.05	0.071
367.51	0.069
367.98	0.067
368.44	0.068
368.90	0.068
369.37	0.069
369.83	0.064
370.29	0.068
370.76	0.067
371.22	0.067
371.68	0.065
372.15	0.066
372.61	0.061
373.07	0.064
373.54	0.064
374.00	0.062
374.46	0.064
374.92	0.064
375.39	0.061
375.85	0.063
376.31	0.065
376.78	0.062
377.24	0.063
377.70	0.062
378.16	0.059
378.63	0.060
379.09	0.062
379.55	0.061
380.01	0.062
380.48	0.060
380.94	0.059
381.40	0.056
381.87	0.061
382.33	0.058
382.79	0.059
383.25	0.059
383.72	0.060
384.18	0.059
384.64	0.060
385.10	0.058
385.56	0.060
386.03	0.058
386.49	0.059
386.95	0.056
387.41	0.059
387.88	0.059
388.34	0.057
388.80	0.058
389.26	0.059
389.72	0.057
390.19	0.059
390.65	0.059
391.11	0.058
391.57	0.059
392.04	0.058
392.50	0.056
392.96	0.054
393.42	0.054
393.88	0.058
394.34	0.058
394.81	0.058
395.27	0.056
395.73	0.057
396.19	0.058
396.65	0.055
397.12	0.056
397.58	0.057
398.04	0.055
398.50	0.055
398.96	0.053
399.42	0.056
399.89	0.055
400.35	0.055
400.81	0.053
401.27	0.053
401.73	0.052
402.19	0.051
402.65	0.051
403.12	0.050
403.58	0.050
404.04	0.052
404.50	0.052
404.96	0.051
405.42	0.052
405.88	0.049
406.34	0.049
406.81	0.049
407.27	0.048
407.73	0.049
408.19	0.046
408.65	0.047
409.11	0.045
409.57	0.051
410.03	0.047
410.49	0.049
410.96	0.049
411.42	0.048
411.88	0.047
412.34	0.045
412.80	0.047
413.26	0.044
413.72	0.045
414.18	0.044
414.64	0.041
415.10	0.046
415.56	0.047
416.02	0.048
416.48	0.043
416.95	0.041
417.41	0.042
417.87	0.044
418.33	0.045
418.79	0.043
419.25	0.044
419.71	0.044
420.17	0.044
420.63	0.043
421.09	0.042
421.55	0.041
422.01	0.042
422.47	0.043
422.93	0.043
423.39	0.044
423.85	0.044
424.31	0.043
424.77	0.042
425.23	0.044
425.69	0.044
426.15	0.042
426.61	0.042
427.07	0.044
427.53	0.044
427.99	0.043
428.45	0.043
428.91	0.046
429.37	0.043
429.83	0.040
430.29	0.040
430.75	0.042
431.21	0.042
431.67	0.041
432.13	0.044
432.59	0.042
433.05	0.046
433.51	0.043
433.97	0.042
434.43	0.043
434.89	0.044
435.35	0.044
435.81	0.041
436.27	0.039
436.73	0.040
437.19	0.041
437.65	0.043
438.11	0.043
438.57	0.044
439.03	0.044
439.48	0.041
439.94	0.041
440.40	0.040
440.86	0.045
441.32	0.040
441.78	0.045
442.24	0.042
442.70	0.041
443.16	0.039
443.62	0.039
444.08	0.040
444.54	0.042
444.99	0.041
445.45	0.042
445.91	0.043
446.37	0.046
446.83	0.043
447.29	0.044
447.75	0.044
448.21	0.047
448.67	0.044
449.12	0.044
449.58	0.044
450.04	0.042
450.50	0.044
450.96	0.049
451.42	0.043
451.88	0.042
452.34	0.043
452.79	0.040
453.25	0.046
453.71	0.044
454.17	0.044
454.63	0.046
455.09	0.046
455.55	0.046
456.00	0.042
456.46	0.045
456.92	0.044
457.38	0.046
457.84	0.042
458.30	0.043
458.75	0.047
459.21	0.043
459.67	0.048
460.13	0.048
460.59	0.047
461.04	0.044
461.50	0.047
461.96	0.047
462.42	0.046
462.88	0.044
463.33	0.045
463.79	0.044
464.25	0.044
464.71	0.044
465.17	0.045
465.62	0.045
466.08	0.045
466.54	0.046
467.00	0.047
467.46	0.047
467.91	0.047
468.37	0.048
468.83	0.046
469.29	0.046
469.74	0.047
470.20	0.048
470.66	0.046
471.12	0.046
471.57	0.047
472.03	0.046
472.49	0.047
472.95	0.049
473.40	0.047
473.86	0.046
474.32	0.046
474.78	0.050
475.23	0.048
475.69	0.050
476.15	0.047
476.60	0.050
477.06	0.049
477.52	0.050
477.98	0.049
478.43	0.048
478.89	0.050
479.35	0.050
479.80	0.049
480.26	0.050
480.72	0.050
481.18	0.052
481.63	0.048
482.09	0.051
482.55	0.053
483.00	0.050
483.46	0.050
483.92	0.050
484.37	0.051
484.83	0.046
485.29	0.048
485.74	0.051
486.20	0.051
486.66	0.050
487.11	0.050
487.57	0.049
488.03	0.051
488.48	0.051
488.94	0.049
489.40	0.051
489.85	0.052
490.31	0.053
490.77	0.051
491.22	0.052
491.68	0.049
492.13	0.052
492.59	0.051
493.05	0.052
493.50	0.051
493.96	0.052
494.42	0.052
494.87	0.050
495.33	0.050
495.78	0.055
496.24	0.055
496.70	0.052
497.15	0.053
497.61	0.053
498.06	0.053
498.52	0.051
498.98	0.052
499.43	0.054
499.89	0.052
500.34	0.052
500.80	0.054
501.25	0.053
501.71	0.051
502.17	0.051
502.62	0.056
503.08	0.053
503.53	0.051
503.99	0.052
504.44	0.051
504.90	0.051
505.36	0.050
505.81	0.052
506.27	0.054
506.72	0.053
507.18	0.052
507.63	0.051
508.09	0.052
508.54	0.051
509.00	0.052
509.45	0.051
509.91	0.052
510.36	0.051
510.82	0.052
511.27	0.050
511.73	0.051
512.19	0.051
512.64	0.052
513.10	0.051
513.55	0.053
514.01	0.050
514.46	0.052
514.92	0.051
515.37	0.052
515.83	0.051
516.28	0.051
516.73	0.051
517.19	0.052
517.64	0.050
518.10	0.051
518.55	0.053
519.01	0.051
519.46	0.051
519.92	0.054
520.37	0.049
520.83	0.051
521.28	0.051
521.74	0.052
522.19	0.050
522.65	0.051
523.10	0.053
523.55	0.051
524.01	0.054
524.46	0.053
524.92	0.052
525.37	0.052
525.83	0.051
526.28	0.053
526.73	0.053
527.19	0.055
527.64	0.055
528.10	0.054
528.55	0.053
529.01	0.053
529.46	0.052
529.91	0.054
530.37	0.054
530.82	0.055
531.28	0.053
531.73	0.055
532.18	0.054
532.64	0.056
533.09	0.054
533.54	0.056
534.00	0.055
534.45	0.059
534.91	0.058
535.36	0.058
535.81	0.059
536.27	0.058
536.72	0.060
537.17	0.058
537.63	0.059
538.08	0.060
538.54	0.060
538.99	0.060
539.44	0.061
539.90	0.060
540.35	0.060
540.80	0.061
541.26	0.063
541.71	0.064
542.16	0.063
542.62	0.063
543.07	0.064
543.52	0.065
543.98	0.066
544.43	0.065
544.88	0.064
545.34	0.069
545.79	0.067
546.24	0.065
546.69	0.069
547.15	0.068
547.60	0.070
548.05	0.072
548.51	0.071
548.96	0.073
549.41	0.074
549.86	0.074
550.32	0.077
550.77	0.077
551.22	0.076
551.68	0.075
552.13	0.078
552.58	0.078
553.03	0.081
553.49	0.080
553.94	0.080
554.39	0.081
554.84	0.084
555.30	0.085
555.75	0.084
556.20	0.083
556.65	0.086
557.11	0.087
557.56	0.088
558.01	0.091
558.46	0.092
558.92	0.091
559.37	0.091
559.82	0.092
560.27	0.095
560.72	0.096
561.18	0.094
561.63	0.096
562.08	0.096
562.53	0.099
562.99	0.099
563.44	0.099
563.89	0.102
564.34	0.102
564.79	0.104
565.25	0.104
565.70	0.102
566.15	0.105
566.60	0.106
567.05	0.107
567.50	0.109
567.96	0.109
568.41	0.111
568.86	0.111
569.31	0.114
569.76	0.113
570.21	0.114
570.67	0.118
571.12	0.118
571.57	0.118
572.02	0.120
572.47	0.122
572.92	0.124
573.37	0.125
573.83	0.125
574.28	0.128
574.73	0.129
575.18	0.130
575.63	0.131
576.08	0.130
576.53	0.135
576.98	0.137
577.44	0.135
577.89	0.138
578.34	0.140
578.79	0.141
579.24	0.143
579.69	0.145
580.14	0.145
580.59	0.148
581.04	0.148
581.49	0.151
581.95	0.154
582.40	0.154
582.85	0.158
583.30	0.158
583.75	0.162
584.20	0.165
584.65	0.166
585.10	0.169
585.55	0.171
586.00	0.171
586.45	0.175
586.90	0.179
587.35	0.182
587.80	0.183
588.25	0.186
588.71	0.188
589.16	0.191
589.61	0.193
590.06	0.196
590.51	0.200
590.96	0.201
591.41	0.205
591.86	0.207
592.31	0.210
592.76	0.216
593.21	0.216
593.66	0.222
594.11	0.223
594.56	0.224
595.01	0.231
595.46	0.233
595.91	0.236
596.36	0.238
596.81	0.242
597.26	0.243
597.71	0.248
598.16	0.251
598.61	0.254
599.06	0.258
599.51	0.263
599.96	0.264
600.41	0.267
600.86	0.271
601.31	0.273
601.76	0.279
602.21	0.283
602.65	0.286
603.10	0.289
603.55	0.289
604.00	0.293
604.45	0.296
604.90	0.300
605.35	0.300
605.80	0.308
606.25	0.311
606.70	0.311
607.15	0.313
607.60	0.315
608.05	0.316
608.50	0.321
608.95	0.322
609.39	0.327
609.84	0.329
610.29	0.330
610.74	0.331
611.19	0.334
611.64	0.335
612.09	0.338
612.54	0.341
612.99	0.341
613.44	0.341
613.88	0.344
614.33	0.344
614.78	0.344
615.23	0.346
615.68	0.348
616.13	0.349
616.58	0.349
617.03	0.350
617.47	0.351
617.92	0.351
618.37	0.351
618.82	0.353
619.27	0.356
619.72	0.355
620.17	0.354
620.61	0.357
621.06	0.358
621.51	0.358
621.96	0.357
622.41	0.359
622.86	0.359
623.30	0.359
623.75	0.361
624.20	0.363
624.65	0.361
625.10	0.365
625.54	0.365
625.99	0.365
626.44	0.369
626.89	0.367
627.34	0.371
627.78	0.369
628.23	0.372
628.68	0.372
629.13	0.375
629.58	0.376
630.02	0.378
630.47	0.380
630.92	0.383
631.37	0.384
631.81	0.387
632.26	0.389
632.71	0.392
633.16	0.393
633.61	0.397
634.05	0.398
634.50	0.403
634.95	0.403
635.40	0.410
635.84	0.415
636.29	0.415
636.74	0.419
637.18	0.423
637.63	0.426
638.08	0.429
638.53	0.435
638.97	0.438
639.42	0.443
639.87	0.446
640.32	0.450
640.76	0.456
641.21	0.460
641.66	0.466
642.10	0.471
642.55	0.475
643.00	0.481
643.44	0.486
643.89	0.489
644.34	0.497
644.79	0.504
645.23	0.505
645.68	0.512
646.13	0.517
646.57	0.525
647.02	0.526
647.47	0.534
647.91	0.542
648.36	0.546
648.81	0.553
649.25	0.556
649.70	0.561
650.15	0.568
650.59	0.573
651.04	0.577
651.48	0.584
651.93	0.590
652.38	0.593
652.82	0.598
653.27	0.602
653.72	0.611
654.16	0.615
654.61	0.620
655.06	0.622
655.50	0.626
655.95	0.632
656.39	0.634
656.84	0.639
657.29	0.645
657.73	0.653
658.18	0.654
658.62	0.659
659.07	0.666
659.52	0.669
659.96	0.672
660.41	0.674
660.85	0.678
661.30	0.678
661.74	0.686
662.19	0.686
662.64	0.687
663.08	0.691
663.53	0.697
663.97	0.694
664.42	0.696
664.86	0.704
665.31	0.702
665.75	0.700
666.20	0.702
666.65	0.704
667.09	0.703
667.54	0.704
667.98	0.703
668.43	0.695
668.87	0.694
669.32	0.694
669.76	0.688
670.21	0.686
670.65	0.680
671.10	0.676
671.54	0.667
671.99	0.660
672.43	0.653
672.88	0.648
673.32	0.638
673.77	0.626
674.21	0.619
674.66	0.610
675.10	0.599
675.55	0.589
675.99	0.579
676.44	0.565
676.88	0.555
677.33	0.543
677.77	0.531
678.22	0.516
678.66	0.502
679.11	0.490
679.55	0.477
679.99	0.463
680.44	0.451
680.88	0.435
681.33	0.421
681.77	0.408
682.22	0.398
682.66	0.384
683.11	0.371
683.55	0.357
683.99	0.345
684.44	0.332
684.88	0.317
685.33	0.308
685.77	0.297
686.21	0.284
686.66	0.276
687.10	0.261
687.55	0.253
687.99	0.244
688.44	0.234
688.88	0.224
689.32	0.214
689.77	0.205
690.21	0.196
690.65	0.188
691.10	0.182
691.54	0.175
691.99	0.165
692.43	0.159
692.87	0.152
693.32	0.145
693.76	0.140
694.20	0.136
694.65	0.129
695.09	0.125
695.53	0.119
695.98	0.115
696.42	0.110
696.86	0.106
697.31	0.099
697.75	0.098
698.19	0.093
698.64	0.089
699.08	0.086
699.52	0.084
699.97	0.080
700.41	0.077
700.85	0.077
701.30	0.072
701.74	0.071
702.18	0.068
702.63	0.066
703.07	0.064
703.51	0.063
703.96	0.059
704.40	0.058
704.84	0.057
705.28	0.054
705.73	0.052
706.17	0.052
706.61	0.051
707.06	0.048
707.50	0.048
707.94	0.046
708.38	0.044
708.83	0.045
709.27	0.042
709.71	0.041
710.15	0.041
710.60	0.040
711.04	0.039
711.48	0.041
711.92	0.038
712.37	0.037
712.81	0.038
713.25	0.035
713.69	0.035
714.13	0.038
714.58	0.035
715.02	0.034
715.46	0.033
715.90	0.033
716.35	0.029
716.79	0.034
717.23	0.033
717.67	0.030
718.11	0.034
718.56	0.034
719.00	0.033
719.44	0.032
719.88	0.030
720.32	0.029
720.76	0.032
721.21	0.030
721.65	0.028
722.09	0.030
722.53	0.029
722.97	0.029
723.41	0.028
723.86	0.031
724.30	0.028
724.74	0.030
725.18	0.032
725.62	0.028
726.06	0.030
726.50	0.026
726.95	0.027
727.39	0.031
727.83	0.028
728.27	0.030
728.71	0.030
729.15	0.030
729.59	0.029
730.03	0.027
730.48	0.029
730.92	0.028
731.36	0.031
731.80	0.030
732.24	0.032
732.68	0.028
733.12	0.029
733.56	0.029
734.00	0.030
734.44	0.030
734.89	0.029
735.33	0.031
735.77	0.033
736.21	0.031
736.65	0.031
737.09	0.034
737.53	0.032
737.97	0.032
738.41	0.031
738.85	0.035
739.29	0.032
739.73	0.030
740.17	0.032
740.61	0.032
741.05	0.032
741.49	0.033
741.93	0.031
742.37	0.030
742.81	0.029
743.26	0.032
743.70	0.031
744.14	0.032
744.58	0.030
745.02	0.030
745.46	0.031
745.90	0.030
746.34	0.033
746.78	0.032
747.22	0.034
747.66	0.033
748.10	0.033
748.54	0.031
748.98	0.029
749.42	0.031
749.86	0.033
750.29	0.032
750.73	0.032
751.17	0.030
751.61	0.029
752.05	0.033
752.49	0.031
752.93	0.029
753.37	0.031
753.81	0.027
754.25	0.029
754.69	0.028
755.13	0.030
755.57	0.032
756.01	0.031
756.45	0.032
756.89	0.030
757.33	0.032
757.77	0.031
758.21	0.033
758.64	0.030
759.08	0.029
759.52	0.031
759.96	0.032
760.40	0.031
760.84	0.029
761.28	0.029
761.72	0.030
762.16	0.033
762.60	0.029
763.03	0.030
763.47	0.030
763.91	0.032
764.35	0.031
764.79	0.030
765.23	0.028
765.67	0.032
766.11	0.030
766.54	0.031
766.98	0.033
767.42	0.034
767.86	0.028
768.30	0.031
768.74	0.033
769.17	0.031
769.61	0.032
770.05	0.031
770.49	0.032
770.93	0.034
771.37	0.028
771.80	0.031
772.24	0.029
772.68	0.028
773.12	0.032
773.56	0.032
774.00	0.029
774.43	0.028
774.87	0.030
775.31	0.031
775.75	0.030
776.19	0.031
776.62	0.031
777.06	0.032
777.50	0.032
777.94	0.028
778.37	0.031
778.81	0.030
779.25	0.032
779.69	0.031
780.13	0.031
780.56	0.027
781.00	0.031
781.44	0.032
781.88	0.032
782.31	0.031
782.75	0.031
783.19	0.033
783.63	0.027
784.06	0.029
784.50	0.032
784.94	0.029
785.37	0.030
785.81	0.032
786.25	0.031
786.69	0.029
787.12	0.029
787.56	0.028
788.00	0.030
788.43	0.029
788.87	0.029
789.31	0.030
789.75	0.031
790.18	0.029
790.62	0.032
791.06	0.031
791.49	0.028
791.93	0.028
792.37	0.032
792.80	0.029
793.24	0.027
793.68	0.031
794.11	0.031
794.55	0.034
794.99	0.032
795.42	0.032
795.86	0.033
796.30	0.028
796.73	0.028
797.17	0.029
797.61	0.030
798.04	0.031
798.48	0.031
798.91	0.030
799.35	0.027
799.79	0.032
800.22	0.030
800.66	0.027
801.10	0.029
801.53	0.029
801.97	0.035
802.40	0.032
802.84	0.033
803.28	0.028
803.71	0.033
804.15	0.031
804.58	0.030
805.02	0.032
805.46	0.029
805.89	0.031
806.33	0.033
806.76	0.034
807.20	0.032
807.63	0.031
808.07	0.033
808.51	0.031
808.94	0.029
809.38	0.033
809.81	0.029
810.25	0.033
810.68	0.032
811.12	0.033
811.55	0.034
811.99	0.031
812.42	0.034
812.86	0.030
813.29	0.029
813.73	0.032
814.17	0.029
814.60	0.034
815.04	0.032
815.47	0.031
815.91	0.030
816.34	0.032
816.78	0.031
817.21	0.033
817.65	0.034
818.08	0.032
818.52	0.034
818.95	0.035
819.39	0.032
819.82	0.029
820.25	0.031
820.69	0.030
821.12	0.030
821.56	0.032
821.99	0.033
822.43	0.031
822.86	0.032
823.30	0.034
823.73	0.032
824.17	0.033
824.60	0.032
825.04	0.037
825.47	0.032
825.90	0.035
826.34	0.036
826.77	0.033
827.21	0.038
827.64	0.034
828.08	0.033
828.51	0.033
828.94	0.033
829.38	0.032
829.81	0.039
830.25	0.038
830.68	0.037
831.11	0.036
831.55	0.037
831.98	0.040
832.42	0.039
832.85	0.039
833.28	0.040
833.72	0.040
834.15	0.039
834.58	0.038
835.02	0.043
835.45	0.043
835.88	0.041
836.32	0.045
836.75	0.040
837.19	0.039
837.62	0.040
838.05	0.040
838.49	0.043
838.92	0.044
839.35	0.043
839.79	0.040
840.22	0.044
840.65	0.039
841.09	0.041
841.52	0.041
841.95	0.040
842.39	0.044
842.82	0.042
843.25	0.041
843.68	0.043
844.12	0.045
844.55	0.044
844.98	0.038
845.42	0.040
845.85	0.037
846.28	0.039
846.71	0.042
847.15	0.043
847.58	0.047
848.01	0.045
848.45	0.041
848.88	0.045
849.31	0.045
849.74	0.042
850.18	0.043
850.61	0.042
851.04	0.045
851.47	0.045
851.91	0.047
852.34	0.045
852.77	0.044
853.20	0.040
853.64	0.039
854.07	0.047
854.50	0.045
854.93	0.051
855.36	0.048
855.80	0.044
856.23	0.043
856.66	0.051
857.09	0.043
857.52	0.047
857.96	0.039
858.39	0.045
858.82	0.039
859.25	0.049
859.68	0.045
860.12	0.042
860.55	0.043
860.98	0.044
861.41	0.039
861.84	0.047
862.27	0.046
862.71	0.048
863.14	0.044
863.57	0.048
864.00	0.045
864.43	0.048
864.86	0.045
865.30	0.053
865.73	0.048
866.16	0.046
866.59	0.051
867.02	0.050
867.45	0.048
867.88	0.049
868.31	0.050
868.75	0.051
869.18	0.051
869.61	0.052
870.04	0.049
870.47	0.045
870.90	0.051
871.33	0.049
871.76	0.050
872.19	0.051
872.62	0.047
873.06	0.045
873.49	0.049
873.92	0.048
874.35	0.051
874.78	0.051
875.21	0.054
875.64	0.044
876.07	0.051
876.50	0.054
876.93	0.055
877.36	0.051
877.79	0.050
878.22	0.050
878.65	0.053
879.08	0.052
879.51	0.056
879.94	0.051
880.37	0.050
880.80	0.056
881.23	0.048
881.67	0.054
882.10	0.055
882.53	0.051
882.96	0.056
883.39	0.052
883.82	0.055
884.25	0.054
884.68	0.055
885.11	0.056
885.54	0.058
885.97	0.055
886.39	0.051
886.82	0.056
887.25	0.056
887.68	0.056
888.11	0.054
888.54	0.052
888.97	0.055
889.40	0.059
889.83	0.057
890.26	0.054
890.69	0.057
891.12	0.055
891.55	0.060
891.98	0.053
892.41	0.059
892.84	0.060
893.27	0.057
893.70	0.056
894.13	0.060
894.56	0.062
894.98	0.063
895.41	0.061
895.84	0.060
896.27	0.057
896.70	0.059
897.13	0.060
897.56	0.058
897.99	0.058
898.42	0.056
898.85	0.063
899.27	0.059
899.70	0.060
900.13	0.058
900.56	0.059
900.99	0.061
901.42	0.063
901.85	0.060
902.28	0.063
902.70	0.061
903.13	0.065
903.56	0.060
903.99	0.060
904.42	0.060
904.85	0.061
905.27	0.062
905.70	0.059
906.13	0.064
906.56	0.062
906.99	0.064
907.42	0.061
907.84	0.058
908.27	0.064
908.70	0.063
909.13	0.064
909.56	0.059
909.98	0.060
910.41	0.060
910.84	0.064
911.27	0.063
911.70	0.062
912.12	0.060
912.55	0.060
912.98	0.059
913.41	0.061
913.84	0.062
914.26	0.059
914.69	0.061
915.12	0.064
915.55	0.057
915.97	0.063
916.40	0.063
916.83	0.062
917.26	0.065
917.68	0.065
918.11	0.066
918.54	0.061
918.97	0.063
919.39	0.061
919.82	0.065
920.25	0.061
920.67	0.060
921.10	0.066
921.53	0.066
921.96	0.069
922.38	0.067
922.81	0.065
923.24	0.066
923.66	0.064
924.09	0.066
924.52	0.068
924.94	0.068
925.37	0.069
925.80	0.071
926.22	0.068
926.65	0.071
927.08	0.073
927.50	0.070
927.93	0.076
928.36	0.071
928.78	0.073
929.21	0.074
929.64	0.077
930.06	0.079
930.49	0.079
930.92	0.082
931.34	0.078
931.77	0.082
932.20	0.082
932.62	0.081
933.05	0.081
933.47	0.084
933.90	0.080
934.33	0.079
934.75	0.085
935.18	0.088
935.61	0.090
936.03	0.089
936.46	0.090
936.88	0.091
937.31	0.093
937.73	0.094
938.16	0.091
938.59	0.097
939.01	0.098
939.44	0.099
939.86	0.102
940.29	0.105
940.71	0.107
941.14	0.111
941.57	0.107
941.99	0.102
942.42	0.110
942.84	0.116
943.27	0.117
943.69	0.113
944.12	0.120
944.54	0.126
944.97	0.117
945.39	0.121
945.82	0.126
946.24	0.133
946.67	0.128
947.09	0.132
947.52	0.131
947.94	0.134
948.37	0.134
948.79	0.141
949.22	0.143
949.64	0.137
950.07	0.150
950.49	0.149
950.92	0.155
951.34	0.157
951.77	0.157
952.19	0.154
952.62	0.163
953.04	0.164
953.47	0.165
953.89	0.173
954.32	0.179
954.74	0.173
955.17	0.176
955.59	0.180
956.01	0.181
956.44	0.186
956.86	0.188
957.29	0.195
957.71	0.198
958.14	0.197
958.56	0.193
958.98	0.200
959.41	0.200
959.83	0.201
960.26	0.197
960.68	0.207
961.10	0.206
961.53	0.206
961.95	0.207
962.38	0.211
962.80	0.211
963.22	0.212
963.65	0.209
964.07	0.214
964.50	0.223
964.92	0.217
965.34	0.219
965.77	0.214
966.19	0.216
966.61	0.217
967.04	0.224
967.46	0.220
967.88	0.230
968.31	0.217
968.73	0.222
969.15	0.222
969.58	0.225
970.00	0.219
970.42	0.220
970.85	0.217
971.27	0.219
971.69	0.223
972.12	0.227
972.54	0.223
972.96	0.224
973.39	0.231
973.81	0.231
974.23	0.226
974.65	0.224
975.08	0.231
975.50	0.230
975.92	0.231
976.35	0.224
976.77	0.231
977.19	0.223
977.61	0.227
978.04	0.225
978.46	0.223
978.88	0.226
979.30	0.230
979.73	0.229
980.15	0.230
980.57	0.232
980.99	0.231
981.42	0.228
981.84	0.232
982.26	0.231
982.68	0.224
983.11	0.226
983.53	0.225
983.95	0.228
984.37	0.220
984.79	0.227
985.22	0.226
985.64	0.225
986.06	0.221
986.48	0.225
986.90	0.220
987.33	0.218
987.75	0.220
988.17	0.218
988.59	0.222
989.01	0.220
989.43	0.215
989.86	0.219
990.28	0.221
990.70	0.217
991.12	0.223
991.54	0.224
991.96	0.219
992.39	0.221
992.81	0.212
993.23	0.217
993.65	0.210
994.07	0.216
994.49	0.213
994.91	0.216
995.34	0.207
995.76	0.211
996.18	0.212
996.60	0.213
997.02	0.210
997.44	0.201
997.86	0.211
998.28	0.201
998.70	0.212
999.12	0.203
999.55	0.206
999.97	0.206
1000.39	0.205
1000.81	0.209
1001.23	0.203
1001.65	0.204
1002.07	0.202
1002.49	0.204
1002.91	0.196
1003.33	0.200
1003.75	0.192
1004.17	0.202
1004.59	0.192
1005.01	0.198
1005.43	0.193
1005.85	0.197
1006.28	0.183
1006.70	0.191
1007.12	0.191
1007.54	0.195
1007.96	0.190
1008.38	0.188
1008.80	0.190
1009.22	0.184
1009.64	0.186
1010.06	0.185
1010.48	0.178
1010.90	0.186
1011.32	0.178
1011.74	0.179
1012.16	0.187
1012.58	0.176
1013.00	0.178
1013.42	0.173
1013.84	0.173
1014.26	0.177
1014.67	0.177
1015.09	0.173
1015.51	0.171
1015.93	0.171
1016.35	0.168
1016.77	0.177
1017.19	0.163
1017.61	0.168
1018.03	0.177
1018.45	0.161
1018.87	0.172
1019.29	0.170
1019.71	0.164
1020.13	0.164
1020.55	0.165
1020.97	0.156
1021.38	0.151
1021.80	0.152
1022.22	0.159
1022.64	0.160
1023.06	0.156
1023.48	0.166
1023.90	0.156
1024.32	0.141
1024.74	0.155
1025.15	0.146
1025.57	0.137
1025.99	0.142
1026.41	0.152
1026.83	0.142
1027.25	0.151
1027.67	0.145
1028.08	0.145
1028.50	0.155
1028.92	0.140
1029.34	0.139
1029.76	0.155
1030.18	0.132
1030.60	0.148
1031.01	0.133
1031.43	0.154
1031.85	0.147
1032.27	0.131
1032.69	0.143
1033.10	0.154
1033.52	0.132
1033.94	0.128
1034.36	0.133
1034.78	0.128
1035.19	0.136
1035.61	0.138
1036.03	0.137
1036.45	0.124
1036.87	0.132
1037.28	0.129
1037.70	0.117
1038.12	0.114
1038.54	0.124
1038.95	0.109
1039.37	0.127
1039.79	0.120
1040.21	0.126
1040.62	0.121
1041.04	0.127
1041.46	0.115
1041.88	0.110
1042.29	0.126
1042.71	0.108
1043.13	0.136
1043.55	0.116
1043.96	0.110
1044.38	0.126
1044.80	0.115
1045.21	0.114
1045.63	0.112
1046.05	0.108
1046.47	0.122
1046.88	0.121
1047.30	0.126
1047.72	0.123
1048.13	0.117
1048.55	0.105
1048.97	0.118
1049.38	0.127
1049.80	0.117
1050.22	0.117
1050.63	0.108
1051.05	0.117
1051.47	0.118
1051.88	0.103
1052.30	0.106
1052.72	0.124
1053.13	0.107
1053.55	0.113
1053.97	0.095
1054.38	0.129
1054.80	0.114
1055.21	0.128
1055.63	0.110
1056.05	0.116
1056.46	0.110
1056.88	0.110
1057.29	0.130
1057.71	0.097
1058.13	0.107
1058.54	0.131
1058.96	0.107
1059.37	0.117
1059.79	0.100
1060.21	0.109
1060.62	0.113
1061.04	0.098
1061.45	0.115
1061.87	0.119
1062.28	0.105
1062.70	0.123
1063.12	0.081
1063.53	0.095
1063.95	0.149
1064.36	0.132
1064.78	0.135
1065.19	0.108
1065.61	0.099
1066.02	0.141
1066.44	0.151
1066.85	0.112
1067.27	0.171
1067.68	0.095
1068.10	0.061
1068.51	0.178
1068.93	0.161
1069.35	0.184
1069.76	0.114
1070.17	0.151
1070.59	0.155
1071.00	0.151
1071.42	0.048
1071.83	0.252
1072.25	0.105
1072.66	0.164
1073.08	0.178
1073.49	0.202
1073.91	0.152
1074.32	0.280
1074.74	0.169
1075.15	0.227
1075.57	0.239
1075.98	0.225
1076.40	0.136
1076.81	0.218
1077.22	0.160
1077.64	0.197
1078.05	0.226
1078.47	0.332
1078.88	0.347
1079.30	0.381
1079.71	0.497
1080.12	0.585
1080.54	0.646
1080.95	0.269
1081.37	0.471
1081.78	0.199
1082.19	0.295
1082.61	0.239
1083.02	0.375
1083.44	0.261
1083.85	0.443
1084.26	0.580
1084.68	0.428
1085.09	0.397
1085.50	1.380
1085.92	1.297
1086.33	0.733
1086.74	0.403
1087.16	0.577
1087.57	0.560
1087.98	0.218
1088.40	0.280
1088.81	0.377
1089.22	0.057
1089.64	0.150
1090.05	0.297
1090.46	0.925
1090.88	0.253
1091.29	0.357
1091.70	-0.000
1092.12	0.141
1092.53	0.439
1092.94	-0.000
1093.36	1.480
1093.77	-0.000
1094.18	0.461
1094.59	-0.000
1095.01	1.425
1095.42	0.380
1095.83	0.705
1096.25	1.511
1096.66	-0.000
1097.07	-0.000
1097.48	0.324
1097.90	0.192
1098.31	0.397
1098.72	0.545
1099.13	-0.000
>>>>>End Processed Spectral Data<<<<<
