SpectraSuite Data File
++++++++++++++++++++++++++++++++++++
Date: Mon Jul 10 13:35:47 CEST 2017
User: IPCE
Dark Spectrum Present: Yes
Reference Spectrum Present: Yes
Number of Sampled Component Spectra: 1
Spectrometers: HR+C0708
Integration Time (usec): 1000 (HR+C0708)
Spectra Averaged: 10 (HR+C0708)
Boxcar Smoothing: 0 (HR+C0708)
Correct for Electrical Dark: No (HR+C0708)
Strobe/Lamp Enabled: No (HR+C0708)
Correct for Detector Non-linearity: No (HR+C0708)
Correct for Stray Light: No (HR+C0708)
Number of Pixels in Processed Spectrum: 2048
>>>>>Begin Processed Spectral Data<<<<<
188.76	0.187
189.23	-0.000
189.70	-0.000
190.17	0.189
190.64	0.265
191.12	-0.000
191.59	0.436
192.06	0.480
192.53	0.035
193.01	1.104
193.48	0.138
193.95	0.096
194.42	0.563
194.90	0.647
195.37	0.229
195.84	0.441
196.31	-0.000
196.78	0.227
197.26	-0.036
197.73	-0.000
198.20	-0.000
198.67	0.831
199.14	0.954
199.62	-0.000
200.09	0.944
200.56	0.353
201.03	0.534
201.50	0.704
201.97	0.426
202.45	0.479
202.92	0.637
203.39	0.727
203.86	0.513
204.33	0.316
204.80	0.739
205.28	0.483
205.75	0.534
206.22	0.675
206.69	0.415
207.16	0.238
207.63	0.389
208.11	0.312
208.58	0.371
209.05	0.354
209.52	0.394
209.99	0.713
210.46	0.448
210.93	0.469
211.41	0.663
211.88	0.609
212.35	0.369
212.82	0.397
213.29	0.531
213.76	0.520
214.23	0.518
214.70	0.367
215.18	0.822
215.65	0.529
216.12	0.456
216.59	0.683
217.06	0.472
217.53	0.487
218.00	0.411
218.47	0.485
218.94	0.633
219.41	0.340
219.89	0.444
220.36	0.600
220.83	0.475
221.30	0.583
221.77	0.519
222.24	0.727
222.71	0.568
223.18	0.639
223.65	0.666
224.12	0.642
224.59	0.506
225.06	0.772
225.54	0.923
226.01	0.977
226.48	0.799
226.95	1.154
227.42	1.120
227.89	0.914
228.36	1.300
228.83	1.326
229.30	1.042
229.77	1.085
230.24	1.333
230.71	1.856
231.18	1.306
231.65	1.248
232.12	1.658
232.59	1.615
233.06	1.492
233.53	1.560
234.00	1.655
234.47	1.615
234.94	1.675
235.41	1.687
235.88	1.856
236.35	1.765
236.82	1.778
237.29	2.288
237.76	2.187
238.23	2.090
238.70	2.198
239.17	2.083
239.64	2.090
240.11	2.045
240.58	2.164
241.05	2.728
241.52	2.117
241.99	2.095
242.46	2.518
242.93	2.717
243.40	2.254
243.87	2.641
244.34	2.997
244.81	2.193
245.28	2.545
245.75	2.335
246.22	2.384
246.69	2.340
247.16	2.377
247.63	2.913
248.10	2.551
248.57	2.467
249.04	2.392
249.51	2.653
249.98	2.246
250.45	2.537
250.92	2.933
251.39	3.342
251.85	2.419
252.32	2.614
252.79	3.184
253.26	2.389
253.73	2.293
254.20	2.433
254.67	2.419
255.14	2.405
255.61	2.557
256.08	2.670
256.55	2.524
257.02	2.507
257.49	2.693
257.95	2.682
258.42	2.530
258.89	2.642
259.36	2.815
259.83	2.789
260.30	2.463
260.77	2.636
261.24	2.700
261.71	2.800
262.17	2.603
262.64	2.601
263.11	2.738
263.58	2.848
264.05	2.617
264.52	2.787
264.99	2.773
265.46	2.535
265.92	2.698
266.39	2.771
266.86	2.802
267.33	2.684
267.80	2.587
268.27	2.655
268.74	2.593
269.20	2.506
269.67	2.778
270.14	2.743
270.61	2.531
271.08	2.627
271.55	2.918
272.01	2.721
272.48	2.599
272.95	2.634
273.42	2.659
273.89	2.499
274.36	2.572
274.82	2.654
275.29	2.667
275.76	2.444
276.23	2.627
276.70	2.546
277.16	2.537
277.63	2.572
278.10	2.524
278.57	2.756
279.04	2.563
279.50	2.486
279.97	2.792
280.44	2.526
280.91	2.378
281.38	2.569
281.84	2.570
282.31	2.477
282.78	2.604
283.25	2.536
283.72	2.631
284.18	2.422
284.65	2.557
285.12	2.549
285.59	2.625
286.05	2.525
286.52	2.547
286.99	2.567
287.46	2.399
287.92	2.517
288.39	2.577
288.86	2.595
289.33	2.463
289.79	2.562
290.26	2.558
290.73	2.343
291.20	2.452
291.66	2.547
292.13	2.604
292.60	2.400
293.07	2.654
293.53	2.556
294.00	2.478
294.47	2.403
294.93	2.468
295.40	2.678
295.87	2.409
296.34	2.366
296.80	2.639
297.27	2.590
297.74	2.437
298.20	2.431
298.67	2.431
299.14	2.462
299.60	2.392
300.07	2.412
300.54	2.531
301.01	2.433
301.47	2.415
301.94	2.577
302.41	2.506
302.87	2.317
303.34	2.555
303.81	2.288
304.27	2.361
304.74	2.416
305.21	2.345
305.67	2.419
306.14	2.315
306.61	2.334
307.07	2.521
307.54	2.321
308.01	2.362
308.47	2.422
308.94	2.436
309.40	2.398
309.87	2.294
310.34	2.224
310.80	2.397
311.27	2.282
311.74	2.242
312.20	2.336
312.67	2.418
313.13	2.336
313.60	2.429
314.07	2.293
314.53	2.261
315.00	2.334
315.47	2.324
315.93	2.321
316.40	2.242
316.86	2.291
317.33	2.388
317.80	2.242
318.26	2.207
318.73	2.263
319.19	2.176
319.66	2.114
320.13	2.226
320.59	2.091
321.06	2.046
321.52	2.049
321.99	2.024
322.45	2.014
322.92	1.943
323.39	1.874
323.85	1.890
324.32	1.852
324.78	1.787
325.25	1.762
325.71	1.708
326.18	1.638
326.64	1.573
327.11	1.535
327.58	1.516
328.04	1.415
328.51	1.359
328.97	1.315
329.44	1.267
329.90	1.196
330.37	1.147
330.83	1.077
331.30	1.029
331.76	0.976
332.23	0.911
332.69	0.872
333.16	0.816
333.62	0.764
334.09	0.727
334.56	0.673
335.02	0.629
335.49	0.590
335.95	0.545
336.42	0.511
336.88	0.478
337.35	0.445
337.81	0.417
338.28	0.387
338.74	0.366
339.20	0.343
339.67	0.322
340.13	0.296
340.60	0.277
341.06	0.259
341.53	0.241
341.99	0.226
342.46	0.211
342.92	0.197
343.39	0.185
343.85	0.179
344.32	0.169
344.78	0.164
345.25	0.156
345.71	0.148
346.17	0.142
346.64	0.134
347.10	0.126
347.57	0.118
348.03	0.117
348.50	0.112
348.96	0.110
349.43	0.107
349.89	0.099
350.35	0.100
350.82	0.100
351.28	0.095
351.75	0.092
352.21	0.093
352.67	0.089
353.14	0.088
353.60	0.086
354.07	0.082
354.53	0.085
355.00	0.080
355.46	0.080
355.92	0.083
356.39	0.081
356.85	0.079
357.31	0.077
357.78	0.075
358.24	0.078
358.71	0.075
359.17	0.070
359.63	0.071
360.10	0.073
360.56	0.070
361.03	0.071
361.49	0.069
361.95	0.069
362.42	0.071
362.88	0.071
363.34	0.070
363.81	0.068
364.27	0.072
364.73	0.066
365.20	0.067
365.66	0.066
366.12	0.069
366.59	0.067
367.05	0.063
367.51	0.063
367.98	0.065
368.44	0.063
368.90	0.062
369.37	0.064
369.83	0.061
370.29	0.063
370.76	0.062
371.22	0.064
371.68	0.061
372.15	0.063
372.61	0.062
373.07	0.063
373.54	0.060
374.00	0.060
374.46	0.064
374.92	0.063
375.39	0.059
375.85	0.061
376.31	0.063
376.78	0.059
377.24	0.059
377.70	0.061
378.16	0.062
378.63	0.061
379.09	0.061
379.55	0.060
380.01	0.061
380.48	0.058
380.94	0.060
381.40	0.059
381.87	0.059
382.33	0.061
382.79	0.064
383.25	0.058
383.72	0.059
384.18	0.058
384.64	0.062
385.10	0.059
385.56	0.057
386.03	0.056
386.49	0.058
386.95	0.056
387.41	0.056
387.88	0.059
388.34	0.057
388.80	0.058
389.26	0.056
389.72	0.058
390.19	0.057
390.65	0.055
391.11	0.055
391.57	0.056
392.04	0.055
392.50	0.058
392.96	0.057
393.42	0.058
393.88	0.056
394.34	0.057
394.81	0.056
395.27	0.055
395.73	0.054
396.19	0.056
396.65	0.060
397.12	0.056
397.58	0.054
398.04	0.056
398.50	0.055
398.96	0.055
399.42	0.054
399.89	0.056
400.35	0.053
400.81	0.054
401.27	0.053
401.73	0.056
402.19	0.051
402.65	0.053
403.12	0.050
403.58	0.049
404.04	0.051
404.50	0.051
404.96	0.051
405.42	0.051
405.88	0.050
406.34	0.048
406.81	0.048
407.27	0.047
407.73	0.047
408.19	0.046
408.65	0.046
409.11	0.047
409.57	0.047
410.03	0.046
410.49	0.045
410.96	0.046
411.42	0.045
411.88	0.046
412.34	0.046
412.80	0.046
413.26	0.047
413.72	0.044
414.18	0.045
414.64	0.043
415.10	0.043
415.56	0.045
416.02	0.044
416.48	0.048
416.95	0.043
417.41	0.042
417.87	0.043
418.33	0.043
418.79	0.045
419.25	0.042
419.71	0.044
420.17	0.047
420.63	0.041
421.09	0.043
421.55	0.043
422.01	0.043
422.47	0.043
422.93	0.043
423.39	0.045
423.85	0.042
424.31	0.045
424.77	0.043
425.23	0.042
425.69	0.044
426.15	0.044
426.61	0.042
427.07	0.041
427.53	0.044
427.99	0.044
428.45	0.043
428.91	0.042
429.37	0.040
429.83	0.043
430.29	0.044
430.75	0.042
431.21	0.042
431.67	0.043
432.13	0.044
432.59	0.037
433.05	0.040
433.51	0.042
433.97	0.039
434.43	0.042
434.89	0.042
435.35	0.039
435.81	0.039
436.27	0.040
436.73	0.039
437.19	0.040
437.65	0.042
438.11	0.044
438.57	0.040
439.03	0.036
439.48	0.042
439.94	0.041
440.40	0.042
440.86	0.038
441.32	0.038
441.78	0.039
442.24	0.041
442.70	0.038
443.16	0.039
443.62	0.040
444.08	0.038
444.54	0.040
444.99	0.042
445.45	0.038
445.91	0.038
446.37	0.041
446.83	0.038
447.29	0.037
447.75	0.038
448.21	0.039
448.67	0.040
449.12	0.038
449.58	0.040
450.04	0.042
450.50	0.038
450.96	0.037
451.42	0.039
451.88	0.041
452.34	0.037
452.79	0.041
453.25	0.043
453.71	0.040
454.17	0.040
454.63	0.043
455.09	0.037
455.55	0.037
456.00	0.039
456.46	0.042
456.92	0.037
457.38	0.034
457.84	0.040
458.30	0.040
458.75	0.041
459.21	0.038
459.67	0.042
460.13	0.038
460.59	0.039
461.04	0.042
461.50	0.041
461.96	0.039
462.42	0.042
462.88	0.041
463.33	0.037
463.79	0.040
464.25	0.039
464.71	0.040
465.17	0.040
465.62	0.037
466.08	0.042
466.54	0.042
467.00	0.044
467.46	0.041
467.91	0.041
468.37	0.039
468.83	0.041
469.29	0.041
469.74	0.042
470.20	0.041
470.66	0.042
471.12	0.043
471.57	0.043
472.03	0.039
472.49	0.043
472.95	0.041
473.40	0.042
473.86	0.039
474.32	0.043
474.78	0.043
475.23	0.042
475.69	0.042
476.15	0.041
476.60	0.044
477.06	0.041
477.52	0.043
477.98	0.043
478.43	0.045
478.89	0.043
479.35	0.043
479.80	0.043
480.26	0.043
480.72	0.045
481.18	0.044
481.63	0.044
482.09	0.041
482.55	0.045
483.00	0.044
483.46	0.044
483.92	0.045
484.37	0.046
484.83	0.043
485.29	0.045
485.74	0.045
486.20	0.047
486.66	0.045
487.11	0.045
487.57	0.044
488.03	0.045
488.48	0.043
488.94	0.043
489.40	0.046
489.85	0.049
490.31	0.045
490.77	0.044
491.22	0.045
491.68	0.047
492.13	0.045
492.59	0.047
493.05	0.047
493.50	0.045
493.96	0.046
494.42	0.046
494.87	0.047
495.33	0.047
495.78	0.048
496.24	0.046
496.70	0.046
497.15	0.045
497.61	0.046
498.06	0.048
498.52	0.046
498.98	0.047
499.43	0.048
499.89	0.047
500.34	0.048
500.80	0.047
501.25	0.048
501.71	0.047
502.17	0.048
502.62	0.048
503.08	0.046
503.53	0.047
503.99	0.045
504.44	0.047
504.90	0.047
505.36	0.047
505.81	0.046
506.27	0.047
506.72	0.047
507.18	0.046
507.63	0.047
508.09	0.046
508.54	0.045
509.00	0.044
509.45	0.046
509.91	0.046
510.36	0.045
510.82	0.046
511.27	0.048
511.73	0.048
512.19	0.046
512.64	0.048
513.10	0.046
513.55	0.043
514.01	0.045
514.46	0.047
514.92	0.047
515.37	0.043
515.83	0.047
516.28	0.044
516.73	0.045
517.19	0.043
517.64	0.047
518.10	0.048
518.55	0.043
519.01	0.046
519.46	0.047
519.92	0.046
520.37	0.046
520.83	0.047
521.28	0.048
521.74	0.046
522.19	0.044
522.65	0.043
523.10	0.046
523.55	0.046
524.01	0.045
524.46	0.048
524.92	0.046
525.37	0.047
525.83	0.049
526.28	0.048
526.73	0.047
527.19	0.050
527.64	0.048
528.10	0.047
528.55	0.048
529.01	0.048
529.46	0.048
529.91	0.048
530.37	0.048
530.82	0.048
531.28	0.049
531.73	0.049
532.18	0.052
532.64	0.052
533.09	0.049
533.54	0.052
534.00	0.049
534.45	0.052
534.91	0.051
535.36	0.050
535.81	0.052
536.27	0.052
536.72	0.053
537.17	0.050
537.63	0.054
538.08	0.055
538.54	0.054
538.99	0.056
539.44	0.053
539.90	0.054
540.35	0.055
540.80	0.057
541.26	0.057
541.71	0.056
542.16	0.055
542.62	0.058
543.07	0.059
543.52	0.060
543.98	0.059
544.43	0.061
544.88	0.061
545.34	0.063
545.79	0.062
546.24	0.063
546.69	0.062
547.15	0.064
547.60	0.064
548.05	0.067
548.51	0.066
548.96	0.067
549.41	0.068
549.86	0.068
550.32	0.071
550.77	0.070
551.22	0.071
551.68	0.071
552.13	0.074
552.58	0.073
553.03	0.073
553.49	0.075
553.94	0.078
554.39	0.078
554.84	0.076
555.30	0.078
555.75	0.078
556.20	0.079
556.65	0.081
557.11	0.082
557.56	0.083
558.01	0.082
558.46	0.085
558.92	0.086
559.37	0.087
559.82	0.087
560.27	0.089
560.72	0.089
561.18	0.089
561.63	0.090
562.08	0.092
562.53	0.093
562.99	0.093
563.44	0.093
563.89	0.095
564.34	0.096
564.79	0.095
565.25	0.098
565.70	0.102
566.15	0.101
566.60	0.101
567.05	0.104
567.50	0.105
567.96	0.105
568.41	0.107
568.86	0.109
569.31	0.110
569.76	0.109
570.21	0.111
570.67	0.113
571.12	0.112
571.57	0.114
572.02	0.115
572.47	0.117
572.92	0.119
573.37	0.120
573.83	0.120
574.28	0.120
574.73	0.124
575.18	0.125
575.63	0.126
576.08	0.128
576.53	0.128
576.98	0.132
577.44	0.132
577.89	0.136
578.34	0.138
578.79	0.137
579.24	0.139
579.69	0.142
580.14	0.145
580.59	0.146
581.04	0.148
581.49	0.149
581.95	0.150
582.40	0.151
582.85	0.155
583.30	0.156
583.75	0.160
584.20	0.162
584.65	0.162
585.10	0.166
585.55	0.168
586.00	0.173
586.45	0.171
586.90	0.176
587.35	0.177
587.80	0.180
588.25	0.183
588.71	0.185
589.16	0.189
589.61	0.193
590.06	0.195
590.51	0.201
590.96	0.200
591.41	0.204
591.86	0.208
592.31	0.210
592.76	0.211
593.21	0.213
593.66	0.217
594.11	0.220
594.56	0.225
595.01	0.228
595.46	0.230
595.91	0.235
596.36	0.239
596.81	0.241
597.26	0.245
597.71	0.248
598.16	0.251
598.61	0.254
599.06	0.258
599.51	0.262
599.96	0.263
600.41	0.267
600.86	0.272
601.31	0.274
601.76	0.277
602.21	0.280
602.65	0.282
603.10	0.285
603.55	0.290
604.00	0.293
604.45	0.297
604.90	0.301
605.35	0.302
605.80	0.307
606.25	0.308
606.70	0.310
607.15	0.314
607.60	0.315
608.05	0.319
608.50	0.321
608.95	0.322
609.39	0.325
609.84	0.329
610.29	0.330
610.74	0.332
611.19	0.332
611.64	0.336
612.09	0.335
612.54	0.339
612.99	0.339
613.44	0.341
613.88	0.342
614.33	0.343
614.78	0.344
615.23	0.345
615.68	0.344
616.13	0.347
616.58	0.351
617.03	0.349
617.47	0.350
617.92	0.352
618.37	0.353
618.82	0.352
619.27	0.355
619.72	0.354
620.17	0.354
620.61	0.354
621.06	0.357
621.51	0.356
621.96	0.358
622.41	0.359
622.86	0.359
623.30	0.359
623.75	0.360
624.20	0.364
624.65	0.363
625.10	0.364
625.54	0.364
625.99	0.366
626.44	0.370
626.89	0.370
627.34	0.369
627.78	0.374
628.23	0.372
628.68	0.375
629.13	0.377
629.58	0.377
630.02	0.381
630.47	0.385
630.92	0.387
631.37	0.390
631.81	0.392
632.26	0.393
632.71	0.392
633.16	0.398
633.61	0.399
634.05	0.403
634.50	0.407
634.95	0.409
635.40	0.415
635.84	0.419
636.29	0.423
636.74	0.425
637.18	0.428
637.63	0.431
638.08	0.437
638.53	0.441
638.97	0.445
639.42	0.451
639.87	0.455
640.32	0.460
640.76	0.462
641.21	0.468
641.66	0.470
642.10	0.478
642.55	0.483
643.00	0.490
643.44	0.495
643.89	0.499
644.34	0.504
644.79	0.509
645.23	0.515
645.68	0.524
646.13	0.529
646.57	0.531
647.02	0.540
647.47	0.545
647.91	0.549
648.36	0.557
648.81	0.565
649.25	0.565
649.70	0.573
650.15	0.579
650.59	0.584
651.04	0.589
651.48	0.596
651.93	0.602
652.38	0.605
652.82	0.606
653.27	0.612
653.72	0.624
654.16	0.622
654.61	0.630
655.06	0.636
655.50	0.640
655.95	0.641
656.39	0.648
656.84	0.652
657.29	0.659
657.73	0.658
658.18	0.665
658.62	0.672
659.07	0.676
659.52	0.675
659.96	0.683
660.41	0.684
660.85	0.684
661.30	0.689
661.74	0.694
662.19	0.696
662.64	0.703
663.08	0.702
663.53	0.707
663.97	0.703
664.42	0.709
664.86	0.705
665.31	0.708
665.75	0.707
666.20	0.712
666.65	0.711
667.09	0.704
667.54	0.702
667.98	0.702
668.43	0.700
668.87	0.697
669.32	0.695
669.76	0.691
670.21	0.683
670.65	0.682
671.10	0.676
671.54	0.666
671.99	0.656
672.43	0.647
672.88	0.642
673.32	0.634
673.77	0.628
674.21	0.614
674.66	0.602
675.10	0.590
675.55	0.578
675.99	0.568
676.44	0.555
676.88	0.545
677.33	0.531
677.77	0.520
678.22	0.505
678.66	0.490
679.11	0.476
679.55	0.466
679.99	0.450
680.44	0.437
680.88	0.424
681.33	0.409
681.77	0.395
682.22	0.381
682.66	0.369
683.11	0.354
683.55	0.343
683.99	0.331
684.44	0.322
684.88	0.306
685.33	0.294
685.77	0.286
686.21	0.272
686.66	0.262
687.10	0.249
687.55	0.239
687.99	0.232
688.44	0.222
688.88	0.210
689.32	0.203
689.77	0.196
690.21	0.188
690.65	0.177
691.10	0.172
691.54	0.165
691.99	0.158
692.43	0.149
692.87	0.144
693.32	0.136
693.76	0.131
694.20	0.126
694.65	0.121
695.09	0.114
695.53	0.113
695.98	0.106
696.42	0.101
696.86	0.097
697.31	0.093
697.75	0.092
698.19	0.089
698.64	0.085
699.08	0.081
699.52	0.078
699.97	0.073
700.41	0.071
700.85	0.067
701.30	0.066
701.74	0.065
702.18	0.062
702.63	0.059
703.07	0.058
703.51	0.058
703.96	0.053
704.40	0.053
704.84	0.052
705.28	0.050
705.73	0.049
706.17	0.045
706.61	0.045
707.06	0.043
707.50	0.042
707.94	0.040
708.38	0.038
708.83	0.040
709.27	0.036
709.71	0.037
710.15	0.037
710.60	0.035
711.04	0.035
711.48	0.034
711.92	0.031
712.37	0.034
712.81	0.031
713.25	0.031
713.69	0.033
714.13	0.033
714.58	0.030
715.02	0.031
715.46	0.028
715.90	0.027
716.35	0.029
716.79	0.026
717.23	0.026
717.67	0.029
718.11	0.029
718.56	0.026
719.00	0.026
719.44	0.028
719.88	0.030
720.32	0.025
720.76	0.027
721.21	0.026
721.65	0.023
722.09	0.027
722.53	0.024
722.97	0.027
723.41	0.025
723.86	0.027
724.30	0.025
724.74	0.026
725.18	0.024
725.62	0.024
726.06	0.026
726.50	0.026
726.95	0.026
727.39	0.026
727.83	0.025
728.27	0.025
728.71	0.025
729.15	0.028
729.59	0.028
730.03	0.025
730.48	0.027
730.92	0.026
731.36	0.023
731.80	0.024
732.24	0.025
732.68	0.026
733.12	0.031
733.56	0.027
734.00	0.028
734.44	0.027
734.89	0.026
735.33	0.026
735.77	0.026
736.21	0.029
736.65	0.026
737.09	0.028
737.53	0.026
737.97	0.027
738.41	0.027
738.85	0.029
739.29	0.026
739.73	0.029
740.17	0.028
740.61	0.027
741.05	0.028
741.49	0.027
741.93	0.030
742.37	0.030
742.81	0.027
743.26	0.028
743.70	0.026
744.14	0.026
744.58	0.026
745.02	0.026
745.46	0.027
745.90	0.027
746.34	0.031
746.78	0.028
747.22	0.027
747.66	0.029
748.10	0.027
748.54	0.029
748.98	0.028
749.42	0.031
749.86	0.027
750.29	0.026
750.73	0.025
751.17	0.028
751.61	0.029
752.05	0.027
752.49	0.029
752.93	0.025
753.37	0.029
753.81	0.028
754.25	0.026
754.69	0.030
755.13	0.026
755.57	0.026
756.01	0.027
756.45	0.026
756.89	0.024
757.33	0.028
757.77	0.026
758.21	0.027
758.64	0.028
759.08	0.026
759.52	0.026
759.96	0.027
760.40	0.026
760.84	0.026
761.28	0.027
761.72	0.028
762.16	0.027
762.60	0.028
763.03	0.026
763.47	0.025
763.91	0.025
764.35	0.024
764.79	0.027
765.23	0.027
765.67	0.024
766.11	0.026
766.54	0.029
766.98	0.029
767.42	0.027
767.86	0.028
768.30	0.027
768.74	0.024
769.17	0.026
769.61	0.023
770.05	0.028
770.49	0.027
770.93	0.029
771.37	0.025
771.80	0.026
772.24	0.027
772.68	0.028
773.12	0.028
773.56	0.026
774.00	0.028
774.43	0.022
774.87	0.024
775.31	0.028
775.75	0.027
776.19	0.025
776.62	0.027
777.06	0.026
777.50	0.026
777.94	0.027
778.37	0.029
778.81	0.028
779.25	0.027
779.69	0.024
780.13	0.028
780.56	0.026
781.00	0.025
781.44	0.025
781.88	0.026
782.31	0.026
782.75	0.024
783.19	0.025
783.63	0.025
784.06	0.027
784.50	0.025
784.94	0.029
785.37	0.024
785.81	0.025
786.25	0.024
786.69	0.026
787.12	0.024
787.56	0.026
788.00	0.028
788.43	0.029
788.87	0.027
789.31	0.025
789.75	0.029
790.18	0.025
790.62	0.026
791.06	0.027
791.49	0.026
791.93	0.026
792.37	0.027
792.80	0.026
793.24	0.021
793.68	0.026
794.11	0.026
794.55	0.025
794.99	0.026
795.42	0.023
795.86	0.024
796.30	0.025
796.73	0.024
797.17	0.027
797.61	0.024
798.04	0.027
798.48	0.024
798.91	0.024
799.35	0.026
799.79	0.025
800.22	0.025
800.66	0.026
801.10	0.027
801.53	0.026
801.97	0.025
802.40	0.024
802.84	0.026
803.28	0.026
803.71	0.024
804.15	0.025
804.58	0.025
805.02	0.022
805.46	0.026
805.89	0.029
806.33	0.027
806.76	0.026
807.20	0.027
807.63	0.030
808.07	0.022
808.51	0.021
808.94	0.027
809.38	0.027
809.81	0.024
810.25	0.029
810.68	0.023
811.12	0.025
811.55	0.026
811.99	0.027
812.42	0.027
812.86	0.025
813.29	0.026
813.73	0.027
814.17	0.029
814.60	0.024
815.04	0.027
815.47	0.024
815.91	0.027
816.34	0.024
816.78	0.024
817.21	0.024
817.65	0.027
818.08	0.025
818.52	0.025
818.95	0.023
819.39	0.026
819.82	0.027
820.25	0.025
820.69	0.024
821.12	0.025
821.56	0.025
821.99	0.028
822.43	0.025
822.86	0.027
823.30	0.030
823.73	0.024
824.17	0.026
824.60	0.026
825.04	0.028
825.47	0.028
825.90	0.021
826.34	0.027
826.77	0.025
827.21	0.026
827.64	0.028
828.08	0.032
828.51	0.030
828.94	0.032
829.38	0.029
829.81	0.031
830.25	0.031
830.68	0.035
831.11	0.031
831.55	0.032
831.98	0.035
832.42	0.034
832.85	0.037
833.28	0.036
833.72	0.033
834.15	0.036
834.58	0.032
835.02	0.035
835.45	0.035
835.88	0.034
836.32	0.032
836.75	0.030
837.19	0.030
837.62	0.034
838.05	0.033
838.49	0.033
838.92	0.037
839.35	0.033
839.79	0.040
840.22	0.032
840.65	0.033
841.09	0.035
841.52	0.032
841.95	0.035
842.39	0.033
842.82	0.033
843.25	0.033
843.68	0.039
844.12	0.038
844.55	0.033
844.98	0.038
845.42	0.035
845.85	0.031
846.28	0.032
846.71	0.039
847.15	0.033
847.58	0.033
848.01	0.036
848.45	0.036
848.88	0.037
849.31	0.032
849.74	0.039
850.18	0.032
850.61	0.034
851.04	0.040
851.47	0.038
851.91	0.042
852.34	0.034
852.77	0.033
853.20	0.035
853.64	0.037
854.07	0.036
854.50	0.039
854.93	0.033
855.36	0.036
855.80	0.038
856.23	0.037
856.66	0.039
857.09	0.033
857.52	0.036
857.96	0.034
858.39	0.038
858.82	0.039
859.25	0.039
859.68	0.037
860.12	0.035
860.55	0.038
860.98	0.048
861.41	0.042
861.84	0.040
862.27	0.041
862.71	0.038
863.14	0.034
863.57	0.039
864.00	0.044
864.43	0.041
864.86	0.036
865.30	0.038
865.73	0.042
866.16	0.039
866.59	0.039
867.02	0.037
867.45	0.036
867.88	0.037
868.31	0.040
868.75	0.043
869.18	0.040
869.61	0.038
870.04	0.040
870.47	0.037
870.90	0.040
871.33	0.044
871.76	0.041
872.19	0.039
872.62	0.049
873.06	0.042
873.49	0.041
873.92	0.037
874.35	0.042
874.78	0.049
875.21	0.038
875.64	0.033
876.07	0.048
876.50	0.042
876.93	0.043
877.36	0.042
877.79	0.039
878.22	0.045
878.65	0.041
879.08	0.043
879.51	0.051
879.94	0.041
880.37	0.041
880.80	0.044
881.23	0.052
881.67	0.042
882.10	0.050
882.53	0.050
882.96	0.049
883.39	0.044
883.82	0.046
884.25	0.047
884.68	0.049
885.11	0.042
885.54	0.042
885.97	0.045
886.39	0.048
886.82	0.051
887.25	0.046
887.68	0.046
888.11	0.046
888.54	0.050
888.97	0.049
889.40	0.047
889.83	0.044
890.26	0.051
890.69	0.051
891.12	0.047
891.55	0.044
891.98	0.051
892.41	0.052
892.84	0.048
893.27	0.052
893.70	0.047
894.13	0.046
894.56	0.044
894.98	0.047
895.41	0.051
895.84	0.049
896.27	0.048
896.70	0.053
897.13	0.055
897.56	0.054
897.99	0.053
898.42	0.049
898.85	0.053
899.27	0.051
899.70	0.053
900.13	0.052
900.56	0.055
900.99	0.051
901.42	0.056
901.85	0.050
902.28	0.051
902.70	0.055
903.13	0.052
903.56	0.049
903.99	0.057
904.42	0.055
904.85	0.057
905.27	0.054
905.70	0.054
906.13	0.056
906.56	0.055
906.99	0.058
907.42	0.054
907.84	0.055
908.27	0.054
908.70	0.056
909.13	0.055
909.56	0.054
909.98	0.052
910.41	0.053
910.84	0.052
911.27	0.054
911.70	0.052
912.12	0.058
912.55	0.055
912.98	0.053
913.41	0.057
913.84	0.057
914.26	0.052
914.69	0.057
915.12	0.056
915.55	0.051
915.97	0.050
916.40	0.057
916.83	0.058
917.26	0.055
917.68	0.054
918.11	0.052
918.54	0.054
918.97	0.056
919.39	0.057
919.82	0.058
920.25	0.062
920.67	0.062
921.10	0.059
921.53	0.058
921.96	0.061
922.38	0.063
922.81	0.060
923.24	0.060
923.66	0.059
924.09	0.062
924.52	0.063
924.94	0.060
925.37	0.061
925.80	0.064
926.22	0.066
926.65	0.067
927.08	0.063
927.50	0.063
927.93	0.065
928.36	0.070
928.78	0.068
929.21	0.072
929.64	0.072
930.06	0.069
930.49	0.072
930.92	0.077
931.34	0.075
931.77	0.072
932.20	0.077
932.62	0.078
933.05	0.076
933.47	0.083
933.90	0.081
934.33	0.078
934.75	0.081
935.18	0.086
935.61	0.081
936.03	0.087
936.46	0.089
936.88	0.092
937.31	0.094
937.73	0.092
938.16	0.086
938.59	0.102
939.01	0.099
939.44	0.091
939.86	0.105
940.29	0.102
940.71	0.105
941.14	0.112
941.57	0.108
941.99	0.120
942.42	0.112
942.84	0.111
943.27	0.122
943.69	0.107
944.12	0.123
944.54	0.127
944.97	0.123
945.39	0.120
945.82	0.121
946.24	0.124
946.67	0.126
947.09	0.127
947.52	0.126
947.94	0.134
948.37	0.130
948.79	0.148
949.22	0.143
949.64	0.148
950.07	0.138
950.49	0.159
950.92	0.153
951.34	0.150
951.77	0.159
952.19	0.156
952.62	0.161
953.04	0.165
953.47	0.169
953.89	0.181
954.32	0.174
954.74	0.164
955.17	0.180
955.59	0.184
956.01	0.183
956.44	0.179
956.86	0.185
957.29	0.198
957.71	0.200
958.14	0.195
958.56	0.208
958.98	0.198
959.41	0.198
959.83	0.202
960.26	0.204
960.68	0.208
961.10	0.204
961.53	0.210
961.95	0.215
962.38	0.216
962.80	0.214
963.22	0.216
963.65	0.208
964.07	0.213
964.50	0.215
964.92	0.222
965.34	0.215
965.77	0.218
966.19	0.216
966.61	0.223
967.04	0.218
967.46	0.214
967.88	0.221
968.31	0.224
968.73	0.223
969.15	0.228
969.58	0.227
970.00	0.224
970.42	0.221
970.85	0.226
971.27	0.227
971.69	0.223
972.12	0.222
972.54	0.234
972.96	0.229
973.39	0.217
973.81	0.229
974.23	0.230
974.65	0.225
975.08	0.232
975.50	0.228
975.92	0.235
976.35	0.226
976.77	0.229
977.19	0.234
977.61	0.225
978.04	0.230
978.46	0.237
978.88	0.230
979.30	0.230
979.73	0.234
980.15	0.229
980.57	0.226
980.99	0.234
981.42	0.231
981.84	0.227
982.26	0.223
982.68	0.226
983.11	0.229
983.53	0.223
983.95	0.224
984.37	0.227
984.79	0.230
985.22	0.235
985.64	0.222
986.06	0.228
986.48	0.235
986.90	0.220
987.33	0.222
987.75	0.218
988.17	0.217
988.59	0.220
989.01	0.224
989.43	0.224
989.86	0.231
990.28	0.226
990.70	0.221
991.12	0.224
991.54	0.220
991.96	0.215
992.39	0.220
992.81	0.224
993.23	0.212
993.65	0.216
994.07	0.228
994.49	0.220
994.91	0.210
995.34	0.220
995.76	0.218
996.18	0.214
996.60	0.211
997.02	0.215
997.44	0.201
997.86	0.203
998.28	0.212
998.70	0.211
999.12	0.213
999.55	0.204
999.97	0.210
1000.39	0.212
1000.81	0.205
1001.23	0.205
1001.65	0.200
1002.07	0.195
1002.49	0.201
1002.91	0.200
1003.33	0.211
1003.75	0.196
1004.17	0.205
1004.59	0.205
1005.01	0.204
1005.43	0.195
1005.85	0.189
1006.28	0.200
1006.70	0.197
1007.12	0.185
1007.54	0.195
1007.96	0.194
1008.38	0.188
1008.80	0.191
1009.22	0.185
1009.64	0.191
1010.06	0.186
1010.48	0.192
1010.90	0.187
1011.32	0.175
1011.74	0.186
1012.16	0.188
1012.58	0.190
1013.00	0.184
1013.42	0.189
1013.84	0.177
1014.26	0.185
1014.67	0.194
1015.09	0.183
1015.51	0.186
1015.93	0.166
1016.35	0.171
1016.77	0.180
1017.19	0.165
1017.61	0.156
1018.03	0.174
1018.45	0.163
1018.87	0.167
1019.29	0.169
1019.71	0.162
1020.13	0.182
1020.55	0.153
1020.97	0.163
1021.38	0.164
1021.80	0.153
1022.22	0.164
1022.64	0.159
1023.06	0.161
1023.48	0.157
1023.90	0.160
1024.32	0.157
1024.74	0.162
1025.15	0.146
1025.57	0.144
1025.99	0.153
1026.41	0.155
1026.83	0.138
1027.25	0.152
1027.67	0.150
1028.08	0.153
1028.50	0.160
1028.92	0.139
1029.34	0.155
1029.76	0.136
1030.18	0.146
1030.60	0.145
1031.01	0.136
1031.43	0.131
1031.85	0.134
1032.27	0.125
1032.69	0.120
1033.10	0.128
1033.52	0.136
1033.94	0.148
1034.36	0.125
1034.78	0.143
1035.19	0.144
1035.61	0.106
1036.03	0.116
1036.45	0.120
1036.87	0.106
1037.28	0.119
1037.70	0.138
1038.12	0.133
1038.54	0.116
1038.95	0.105
1039.37	0.123
1039.79	0.115
1040.21	0.133
1040.62	0.105
1041.04	0.126
1041.46	0.132
1041.88	0.101
1042.29	0.119
1042.71	0.116
1043.13	0.109
1043.55	0.110
1043.96	0.132
1044.38	0.117
1044.80	0.103
1045.21	0.104
1045.63	0.118
1046.05	0.105
1046.47	0.098
1046.88	0.116
1047.30	0.104
1047.72	0.101
1048.13	0.104
1048.55	0.099
1048.97	0.116
1049.38	0.114
1049.80	0.102
1050.22	0.111
1050.63	0.114
1051.05	0.064
1051.47	0.113
1051.88	0.114
1052.30	0.098
1052.72	0.103
1053.13	0.101
1053.55	0.109
1053.97	0.082
1054.38	0.098
1054.80	0.114
1055.21	0.093
1055.63	0.104
1056.05	0.123
1056.46	0.140
1056.88	0.097
1057.29	0.081
1057.71	0.092
1058.13	0.106
1058.54	0.081
1058.96	0.153
1059.37	0.146
1059.79	0.105
1060.21	0.097
1060.62	0.147
1061.04	0.121
1061.45	0.157
1061.87	0.091
1062.28	0.082
1062.70	0.134
1063.12	0.095
1063.53	0.171
1063.95	0.127
1064.36	0.118
1064.78	0.087
1065.19	0.113
1065.61	0.155
1066.02	0.139
1066.44	0.091
1066.85	0.174
1067.27	0.120
1067.68	0.113
1068.10	0.131
1068.51	0.158
1068.93	0.167
1069.35	0.149
1069.76	0.167
1070.17	0.196
1070.59	0.036
1071.00	0.151
1071.42	0.092
1071.83	0.159
1072.25	0.077
1072.66	0.209
1073.08	0.320
1073.49	0.157
1073.91	0.164
1074.32	0.251
1074.74	0.207
1075.15	0.222
1075.57	0.231
1075.98	0.406
1076.40	0.363
1076.81	0.060
1077.22	0.189
1077.64	0.264
1078.05	0.123
1078.47	0.185
1078.88	0.596
1079.30	0.290
1079.71	0.038
1080.12	0.262
1080.54	0.501
1080.95	0.673
1081.37	0.135
1081.78	0.479
1082.19	1.783
1082.61	0.426
1083.02	0.360
1083.44	0.502
1083.85	0.301
1084.26	0.172
1084.68	0.407
1085.09	0.093
1085.50	0.543
1085.92	0.377
1086.33	0.233
1086.74	0.425
1087.16	0.079
1087.57	0.224
1087.98	-0.000
1088.40	0.498
1088.81	0.029
1089.22	0.272
1089.64	0.571
1090.05	-0.000
1090.46	-0.103
1090.88	0.627
1091.29	-0.000
1091.70	0.287
1092.12	0.434
1092.53	0.875
1092.94	0.449
1093.36	0.434
1093.77	0.141
1094.18	0.246
1094.59	0.160
1095.01	0.286
1095.42	0.272
1095.83	-0.000
1096.25	0.209
1096.66	0.108
1097.07	0.520
1097.48	0.352
1097.90	0.341
1098.31	0.218
1098.72	0.778
1099.13	0.206
>>>>>End Processed Spectral Data<<<<<
