SpectraSuite Data File
++++++++++++++++++++++++++++++++++++
Date: Mon Jul 10 14:03:17 CEST 2017
User: IPCE
Dark Spectrum Present: Yes
Reference Spectrum Present: Yes
Number of Sampled Component Spectra: 1
Spectrometers: HR+C0708
Integration Time (usec): 1000 (HR+C0708)
Spectra Averaged: 10 (HR+C0708)
Boxcar Smoothing: 0 (HR+C0708)
Correct for Electrical Dark: No (HR+C0708)
Strobe/Lamp Enabled: No (HR+C0708)
Correct for Detector Non-linearity: No (HR+C0708)
Correct for Stray Light: No (HR+C0708)
Number of Pixels in Processed Spectrum: 2048
>>>>>Begin Processed Spectral Data<<<<<
188.76	-0.000
189.23	-0.000
189.70	-0.000
190.17	0.087
190.64	-0.000
191.12	0.833
191.59	0.153
192.06	-0.000
192.53	0.229
193.01	-0.000
193.48	-0.000
193.95	0.685
194.42	-0.000
194.90	0.471
195.37	1.176
195.84	-0.000
196.31	-0.000
196.78	0.210
197.26	0.889
197.73	1.279
198.20	-0.000
198.67	-0.000
199.14	1.063
199.62	-0.000
200.09	0.594
200.56	0.549
201.03	1.597
201.50	0.809
201.97	0.403
202.45	1.541
202.92	0.740
203.39	0.544
203.86	1.574
204.33	0.572
204.80	1.292
205.28	1.018
205.75	2.069
206.22	-0.000
206.69	0.796
207.16	0.273
207.63	1.177
208.11	0.557
208.58	0.530
209.05	0.543
209.52	0.634
209.99	0.908
210.46	0.454
210.93	0.594
211.41	0.725
211.88	0.631
212.35	0.369
212.82	1.248
213.29	0.630
213.76	0.636
214.23	2.043
214.70	0.624
215.18	-0.000
215.65	1.073
216.12	0.572
216.59	1.109
217.06	0.635
217.53	0.578
218.00	1.006
218.47	0.473
218.94	0.649
219.41	0.890
219.89	0.650
220.36	0.537
220.83	0.572
221.30	0.722
221.77	0.776
222.24	0.761
222.71	0.694
223.18	1.436
223.65	0.726
224.12	0.706
224.59	1.148
225.06	0.943
225.54	1.189
226.01	1.164
226.48	1.095
226.95	2.080
227.42	1.154
227.89	1.020
228.36	-0.000
228.83	1.149
229.30	1.104
229.77	1.627
230.24	1.455
230.71	1.607
231.18	3.033
231.65	1.573
232.12	2.451
232.59	1.586
233.06	1.693
233.53	2.257
234.00	1.789
234.47	1.700
234.94	2.384
235.41	1.809
235.88	2.133
236.35	2.218
236.82	2.161
237.29	3.121
237.76	2.412
238.23	2.454
238.70	-0.000
239.17	2.106
239.64	2.177
240.11	3.251
240.58	2.350
241.05	2.257
241.52	2.531
241.99	2.436
242.46	3.207
242.93	-0.000
243.40	2.450
243.87	2.909
244.34	3.415
244.81	2.264
245.28	3.424
245.75	2.418
246.22	2.381
246.69	3.076
247.16	2.515
247.63	2.758
248.10	2.763
248.57	2.683
249.04	2.712
249.51	2.671
249.98	2.310
250.45	3.027
250.92	2.858
251.39	2.582
251.85	2.807
252.32	2.595
252.79	3.156
253.26	2.813
253.73	2.882
254.20	2.901
254.67	2.600
255.14	2.559
255.61	2.884
256.08	2.710
256.55	2.687
257.02	3.030
257.49	2.790
257.95	2.864
258.42	2.807
258.89	2.681
259.36	3.502
259.83	2.741
260.30	2.587
260.77	3.168
261.24	2.829
261.71	2.640
262.17	2.990
262.64	2.832
263.11	2.922
263.58	3.290
264.05	2.797
264.52	2.797
264.99	2.598
265.46	2.658
265.92	2.986
266.39	2.908
266.86	2.928
267.33	3.108
267.80	2.644
268.27	2.667
268.74	2.890
269.20	2.771
269.67	2.956
270.14	3.238
270.61	2.710
271.08	3.107
271.55	2.774
272.01	2.596
272.48	3.240
272.95	2.676
273.42	2.769
273.89	2.691
274.36	3.071
274.82	2.886
275.29	2.810
275.76	2.747
276.23	3.065
276.70	2.563
277.16	2.673
277.63	2.942
278.10	2.600
278.57	2.578
279.04	2.994
279.50	2.599
279.97	2.530
280.44	2.676
280.91	2.818
281.38	2.705
281.84	2.624
282.31	2.560
282.78	2.766
283.25	2.521
283.72	2.556
284.18	2.688
284.65	2.725
285.12	2.615
285.59	2.694
286.05	2.532
286.52	2.854
286.99	2.575
287.46	2.504
287.92	3.138
288.39	2.628
288.86	2.572
289.33	2.798
289.79	2.564
290.26	2.476
290.73	2.595
291.20	2.521
291.66	2.563
292.13	2.532
292.60	2.454
293.07	2.868
293.53	2.443
294.00	2.441
294.47	2.747
294.93	2.440
295.40	2.456
295.87	2.623
296.34	2.534
296.80	2.593
297.27	2.439
297.74	2.512
298.20	2.503
298.67	2.396
299.14	2.341
299.60	2.516
300.07	2.382
300.54	2.332
301.01	2.508
301.47	2.427
301.94	2.411
302.41	2.356
302.87	2.334
303.34	2.454
303.81	2.196
304.27	2.327
304.74	2.349
305.21	2.158
305.67	2.206
306.14	2.284
306.61	2.237
307.07	2.293
307.54	2.239
308.01	2.244
308.47	2.357
308.94	2.209
309.40	2.239
309.87	2.294
310.34	2.138
310.80	2.190
311.27	2.240
311.74	2.156
312.20	2.149
312.67	2.208
313.13	2.197
313.60	2.231
314.07	2.176
314.53	2.179
315.00	2.298
315.47	2.167
315.93	2.166
316.40	2.232
316.86	2.159
317.33	2.147
317.80	2.207
318.26	2.157
318.73	2.195
319.19	2.153
319.66	2.115
320.13	2.316
320.59	2.097
321.06	2.088
321.52	2.185
321.99	2.131
322.45	2.099
322.92	2.159
323.39	2.135
323.85	2.143
324.32	2.188
324.78	2.116
325.25	2.183
325.71	2.060
326.18	2.064
326.64	2.213
327.11	2.016
327.58	2.030
328.04	2.038
328.51	2.021
328.97	2.034
329.44	2.000
329.90	1.977
330.37	2.090
330.83	1.931
331.30	1.956
331.76	2.038
332.23	1.923
332.69	1.919
333.16	1.877
333.62	1.881
334.09	1.882
334.56	1.822
335.02	1.767
335.49	1.784
335.95	1.708
336.42	1.676
336.88	1.675
337.35	1.612
337.81	1.559
338.28	1.555
338.74	1.515
339.20	1.494
339.67	1.467
340.13	1.417
340.60	1.391
341.06	1.339
341.53	1.297
341.99	1.260
342.46	1.213
342.92	1.173
343.39	1.149
343.85	1.102
344.32	1.071
344.78	1.050
345.25	1.014
345.71	0.968
346.17	0.940
346.64	0.905
347.10	0.875
347.57	0.827
348.03	0.802
348.50	0.773
348.96	0.743
349.43	0.710
349.89	0.687
350.35	0.661
350.82	0.643
351.28	0.612
351.75	0.595
352.21	0.586
352.67	0.553
353.14	0.536
353.60	0.520
354.07	0.502
354.53	0.482
355.00	0.472
355.46	0.454
355.92	0.448
356.39	0.441
356.85	0.424
357.31	0.420
357.78	0.406
358.24	0.403
358.71	0.398
359.17	0.382
359.63	0.380
360.10	0.374
360.56	0.372
361.03	0.366
361.49	0.359
361.95	0.358
362.42	0.357
362.88	0.349
363.34	0.350
363.81	0.349
364.27	0.344
364.73	0.340
365.20	0.337
365.66	0.336
366.12	0.335
366.59	0.330
367.05	0.329
367.51	0.332
367.98	0.325
368.44	0.323
368.90	0.327
369.37	0.317
369.83	0.317
370.29	0.320
370.76	0.314
371.22	0.317
371.68	0.319
372.15	0.314
372.61	0.314
373.07	0.312
373.54	0.307
374.00	0.309
374.46	0.309
374.92	0.305
375.39	0.308
375.85	0.302
376.31	0.303
376.78	0.303
377.24	0.301
377.70	0.302
378.16	0.299
378.63	0.297
379.09	0.298
379.55	0.295
380.01	0.295
380.48	0.296
380.94	0.292
381.40	0.289
381.87	0.291
382.33	0.291
382.79	0.289
383.25	0.285
383.72	0.287
384.18	0.284
384.64	0.288
385.10	0.285
385.56	0.284
386.03	0.283
386.49	0.280
386.95	0.279
387.41	0.280
387.88	0.277
388.34	0.276
388.80	0.276
389.26	0.277
389.72	0.275
390.19	0.275
390.65	0.273
391.11	0.272
391.57	0.268
392.04	0.273
392.50	0.272
392.96	0.270
393.42	0.266
393.88	0.268
394.34	0.268
394.81	0.266
395.27	0.262
395.73	0.264
396.19	0.261
396.65	0.265
397.12	0.264
397.58	0.262
398.04	0.261
398.50	0.260
398.96	0.258
399.42	0.260
399.89	0.259
400.35	0.257
400.81	0.259
401.27	0.255
401.73	0.254
402.19	0.254
402.65	0.251
403.12	0.249
403.58	0.249
404.04	0.249
404.50	0.248
404.96	0.244
405.42	0.247
405.88	0.247
406.34	0.245
406.81	0.244
407.27	0.244
407.73	0.241
408.19	0.240
408.65	0.243
409.11	0.242
409.57	0.239
410.03	0.236
410.49	0.238
410.96	0.239
411.42	0.235
411.88	0.235
412.34	0.237
412.80	0.237
413.26	0.237
413.72	0.233
414.18	0.231
414.64	0.232
415.10	0.233
415.56	0.231
416.02	0.232
416.48	0.232
416.95	0.225
417.41	0.230
417.87	0.226
418.33	0.225
418.79	0.228
419.25	0.225
419.71	0.226
420.17	0.226
420.63	0.223
421.09	0.224
421.55	0.225
422.01	0.224
422.47	0.224
422.93	0.223
423.39	0.220
423.85	0.220
424.31	0.222
424.77	0.219
425.23	0.222
425.69	0.220
426.15	0.221
426.61	0.216
427.07	0.217
427.53	0.219
427.99	0.216
428.45	0.216
428.91	0.213
429.37	0.214
429.83	0.215
430.29	0.214
430.75	0.214
431.21	0.217
431.67	0.212
432.13	0.211
432.59	0.209
433.05	0.207
433.51	0.210
433.97	0.208
434.43	0.208
434.89	0.205
435.35	0.205
435.81	0.205
436.27	0.203
436.73	0.201
437.19	0.203
437.65	0.208
438.11	0.205
438.57	0.201
439.03	0.202
439.48	0.203
439.94	0.198
440.40	0.201
440.86	0.201
441.32	0.201
441.78	0.197
442.24	0.201
442.70	0.198
443.16	0.198
443.62	0.197
444.08	0.202
444.54	0.197
444.99	0.198
445.45	0.199
445.91	0.193
446.37	0.194
446.83	0.193
447.29	0.194
447.75	0.192
448.21	0.192
448.67	0.192
449.12	0.193
449.58	0.189
450.04	0.192
450.50	0.190
450.96	0.187
451.42	0.189
451.88	0.192
452.34	0.189
452.79	0.189
453.25	0.190
453.71	0.188
454.17	0.189
454.63	0.184
455.09	0.184
455.55	0.185
456.00	0.185
456.46	0.182
456.92	0.184
457.38	0.182
457.84	0.180
458.30	0.182
458.75	0.181
459.21	0.183
459.67	0.183
460.13	0.178
460.59	0.183
461.04	0.182
461.50	0.182
461.96	0.182
462.42	0.181
462.88	0.182
463.33	0.179
463.79	0.180
464.25	0.179
464.71	0.179
465.17	0.177
465.62	0.177
466.08	0.181
466.54	0.178
467.00	0.181
467.46	0.180
467.91	0.177
468.37	0.175
468.83	0.178
469.29	0.177
469.74	0.177
470.20	0.175
470.66	0.178
471.12	0.177
471.57	0.175
472.03	0.173
472.49	0.174
472.95	0.174
473.40	0.173
473.86	0.173
474.32	0.175
474.78	0.172
475.23	0.172
475.69	0.172
476.15	0.173
476.60	0.170
477.06	0.171
477.52	0.171
477.98	0.171
478.43	0.173
478.89	0.171
479.35	0.170
479.80	0.169
480.26	0.169
480.72	0.170
481.18	0.168
481.63	0.169
482.09	0.167
482.55	0.169
483.00	0.169
483.46	0.169
483.92	0.167
484.37	0.168
484.83	0.167
485.29	0.167
485.74	0.168
486.20	0.167
486.66	0.166
487.11	0.169
487.57	0.165
488.03	0.165
488.48	0.165
488.94	0.163
489.40	0.165
489.85	0.165
490.31	0.162
490.77	0.164
491.22	0.163
491.68	0.164
492.13	0.163
492.59	0.163
493.05	0.161
493.50	0.160
493.96	0.161
494.42	0.163
494.87	0.161
495.33	0.166
495.78	0.162
496.24	0.159
496.70	0.160
497.15	0.162
497.61	0.162
498.06	0.157
498.52	0.158
498.98	0.159
499.43	0.158
499.89	0.160
500.34	0.158
500.80	0.159
501.25	0.160
501.71	0.157
502.17	0.158
502.62	0.158
503.08	0.157
503.53	0.157
503.99	0.155
504.44	0.156
504.90	0.156
505.36	0.155
505.81	0.155
506.27	0.155
506.72	0.155
507.18	0.154
507.63	0.154
508.09	0.153
508.54	0.154
509.00	0.152
509.45	0.154
509.91	0.152
510.36	0.152
510.82	0.155
511.27	0.154
511.73	0.154
512.19	0.154
512.64	0.153
513.10	0.151
513.55	0.152
514.01	0.151
514.46	0.151
514.92	0.149
515.37	0.149
515.83	0.152
516.28	0.152
516.73	0.149
517.19	0.147
517.64	0.151
518.10	0.149
518.55	0.148
519.01	0.146
519.46	0.145
519.92	0.148
520.37	0.148
520.83	0.150
521.28	0.147
521.74	0.146
522.19	0.145
522.65	0.147
523.10	0.146
523.55	0.148
524.01	0.145
524.46	0.146
524.92	0.146
525.37	0.146
525.83	0.145
526.28	0.144
526.73	0.144
527.19	0.147
527.64	0.146
528.10	0.145
528.55	0.144
529.01	0.147
529.46	0.144
529.91	0.144
530.37	0.144
530.82	0.142
531.28	0.143
531.73	0.143
532.18	0.145
532.64	0.143
533.09	0.145
533.54	0.143
534.00	0.141
534.45	0.144
534.91	0.145
535.36	0.144
535.81	0.142
536.27	0.143
536.72	0.144
537.17	0.144
537.63	0.145
538.08	0.144
538.54	0.145
538.99	0.143
539.44	0.144
539.90	0.143
540.35	0.143
540.80	0.145
541.26	0.146
541.71	0.141
542.16	0.144
542.62	0.145
543.07	0.143
543.52	0.145
543.98	0.143
544.43	0.144
544.88	0.146
545.34	0.145
545.79	0.142
546.24	0.145
546.69	0.146
547.15	0.144
547.60	0.144
548.05	0.147
548.51	0.145
548.96	0.143
549.41	0.145
549.86	0.147
550.32	0.146
550.77	0.145
551.22	0.148
551.68	0.148
552.13	0.148
552.58	0.149
553.03	0.148
553.49	0.148
553.94	0.149
554.39	0.148
554.84	0.148
555.30	0.148
555.75	0.147
556.20	0.149
556.65	0.150
557.11	0.152
557.56	0.151
558.01	0.151
558.46	0.152
558.92	0.153
559.37	0.153
559.82	0.153
560.27	0.152
560.72	0.150
561.18	0.153
561.63	0.153
562.08	0.155
562.53	0.153
562.99	0.154
563.44	0.154
563.89	0.154
564.34	0.154
564.79	0.156
565.25	0.157
565.70	0.158
566.15	0.158
566.60	0.156
567.05	0.158
567.50	0.159
567.96	0.159
568.41	0.160
568.86	0.161
569.31	0.163
569.76	0.161
570.21	0.162
570.67	0.161
571.12	0.163
571.57	0.163
572.02	0.163
572.47	0.163
572.92	0.163
573.37	0.163
573.83	0.164
574.28	0.163
574.73	0.165
575.18	0.167
575.63	0.166
576.08	0.167
576.53	0.167
576.98	0.169
577.44	0.168
577.89	0.171
578.34	0.172
578.79	0.172
579.24	0.172
579.69	0.172
580.14	0.175
580.59	0.175
581.04	0.177
581.49	0.178
581.95	0.175
582.40	0.178
582.85	0.180
583.30	0.180
583.75	0.180
584.20	0.183
584.65	0.182
585.10	0.185
585.55	0.185
586.00	0.188
586.45	0.188
586.90	0.189
587.35	0.191
587.80	0.192
588.25	0.192
588.71	0.193
589.16	0.197
589.61	0.198
590.06	0.199
590.51	0.200
590.96	0.199
591.41	0.202
591.86	0.202
592.31	0.204
592.76	0.205
593.21	0.206
593.66	0.210
594.11	0.210
594.56	0.216
595.01	0.215
595.46	0.215
595.91	0.217
596.36	0.217
596.81	0.219
597.26	0.222
597.71	0.226
598.16	0.223
598.61	0.226
599.06	0.229
599.51	0.229
599.96	0.229
600.41	0.231
600.86	0.235
601.31	0.233
601.76	0.236
602.21	0.239
602.65	0.239
603.10	0.240
603.55	0.246
604.00	0.245
604.45	0.246
604.90	0.248
605.35	0.250
605.80	0.248
606.25	0.250
606.70	0.251
607.15	0.252
607.60	0.253
608.05	0.256
608.50	0.257
608.95	0.256
609.39	0.260
609.84	0.260
610.29	0.261
610.74	0.262
611.19	0.264
611.64	0.262
612.09	0.263
612.54	0.265
612.99	0.265
613.44	0.267
613.88	0.268
614.33	0.265
614.78	0.268
615.23	0.269
615.68	0.269
616.13	0.269
616.58	0.270
617.03	0.271
617.47	0.270
617.92	0.268
618.37	0.271
618.82	0.272
619.27	0.273
619.72	0.273
620.17	0.270
620.61	0.276
621.06	0.274
621.51	0.273
621.96	0.274
622.41	0.274
622.86	0.277
623.30	0.277
623.75	0.277
624.20	0.279
624.65	0.280
625.10	0.278
625.54	0.278
625.99	0.280
626.44	0.281
626.89	0.281
627.34	0.281
627.78	0.281
628.23	0.284
628.68	0.284
629.13	0.286
629.58	0.283
630.02	0.287
630.47	0.289
630.92	0.288
631.37	0.290
631.81	0.290
632.26	0.292
632.71	0.292
633.16	0.296
633.61	0.298
634.05	0.297
634.50	0.299
634.95	0.301
635.40	0.305
635.84	0.304
636.29	0.308
636.74	0.311
637.18	0.312
637.63	0.310
638.08	0.315
638.53	0.316
638.97	0.320
639.42	0.322
639.87	0.324
640.32	0.324
640.76	0.326
641.21	0.332
641.66	0.329
642.10	0.335
642.55	0.339
643.00	0.341
643.44	0.343
643.89	0.344
644.34	0.349
644.79	0.353
645.23	0.351
645.68	0.357
646.13	0.361
646.57	0.361
647.02	0.364
647.47	0.366
647.91	0.370
648.36	0.373
648.81	0.375
649.25	0.378
649.70	0.379
650.15	0.382
650.59	0.384
651.04	0.387
651.48	0.392
651.93	0.394
652.38	0.396
652.82	0.395
653.27	0.398
653.72	0.404
654.16	0.405
654.61	0.406
655.06	0.409
655.50	0.408
655.95	0.411
656.39	0.415
656.84	0.417
657.29	0.417
657.73	0.418
658.18	0.423
658.62	0.422
659.07	0.427
659.52	0.425
659.96	0.428
660.41	0.429
660.85	0.430
661.30	0.431
661.74	0.434
662.19	0.432
662.64	0.436
663.08	0.435
663.53	0.437
663.97	0.438
664.42	0.436
664.86	0.437
665.31	0.436
665.75	0.436
666.20	0.435
666.65	0.438
667.09	0.433
667.54	0.430
667.98	0.432
668.43	0.430
668.87	0.429
669.32	0.426
669.76	0.421
670.21	0.420
670.65	0.420
671.10	0.414
671.54	0.411
671.99	0.407
672.43	0.402
672.88	0.395
673.32	0.391
673.77	0.389
674.21	0.383
674.66	0.374
675.10	0.372
675.55	0.364
675.99	0.361
676.44	0.351
676.88	0.347
677.33	0.341
677.77	0.332
678.22	0.325
678.66	0.318
679.11	0.309
679.55	0.303
679.99	0.298
680.44	0.293
680.88	0.286
681.33	0.277
681.77	0.272
682.22	0.263
682.66	0.259
683.11	0.250
683.55	0.245
683.99	0.238
684.44	0.234
684.88	0.226
685.33	0.219
685.77	0.214
686.21	0.208
686.66	0.202
687.10	0.194
687.55	0.191
687.99	0.186
688.44	0.183
688.88	0.177
689.32	0.172
689.77	0.170
690.21	0.165
690.65	0.159
691.10	0.156
691.54	0.153
691.99	0.147
692.43	0.144
692.87	0.144
693.32	0.139
693.76	0.133
694.20	0.132
694.65	0.132
695.09	0.127
695.53	0.124
695.98	0.122
696.42	0.120
696.86	0.116
697.31	0.118
697.75	0.113
698.19	0.113
698.64	0.109
699.08	0.109
699.52	0.108
699.97	0.104
700.41	0.103
700.85	0.101
701.30	0.102
701.74	0.100
702.18	0.100
702.63	0.098
703.07	0.096
703.51	0.096
703.96	0.093
704.40	0.093
704.84	0.094
705.28	0.089
705.73	0.093
706.17	0.090
706.61	0.088
707.06	0.090
707.50	0.088
707.94	0.086
708.38	0.085
708.83	0.086
709.27	0.086
709.71	0.085
710.15	0.085
710.60	0.083
711.04	0.082
711.48	0.085
711.92	0.082
712.37	0.082
712.81	0.082
713.25	0.083
713.69	0.081
714.13	0.082
714.58	0.082
715.02	0.081
715.46	0.079
715.90	0.080
716.35	0.079
716.79	0.079
717.23	0.081
717.67	0.079
718.11	0.081
718.56	0.079
719.00	0.079
719.44	0.081
719.88	0.080
720.32	0.078
720.76	0.079
721.21	0.077
721.65	0.076
722.09	0.078
722.53	0.079
722.97	0.078
723.41	0.078
723.86	0.079
724.30	0.078
724.74	0.078
725.18	0.080
725.62	0.079
726.06	0.077
726.50	0.078
726.95	0.079
727.39	0.077
727.83	0.081
728.27	0.077
728.71	0.076
729.15	0.079
729.59	0.079
730.03	0.078
730.48	0.078
730.92	0.078
731.36	0.079
731.80	0.077
732.24	0.075
732.68	0.081
733.12	0.081
733.56	0.079
734.00	0.081
734.44	0.079
734.89	0.079
735.33	0.079
735.77	0.078
736.21	0.080
736.65	0.077
737.09	0.078
737.53	0.080
737.97	0.079
738.41	0.078
738.85	0.082
739.29	0.079
739.73	0.081
740.17	0.081
740.61	0.077
741.05	0.079
741.49	0.080
741.93	0.076
742.37	0.081
742.81	0.077
743.26	0.079
743.70	0.078
744.14	0.079
744.58	0.081
745.02	0.074
745.46	0.075
745.90	0.080
746.34	0.080
746.78	0.076
747.22	0.079
747.66	0.077
748.10	0.078
748.54	0.080
748.98	0.076
749.42	0.082
749.86	0.078
750.29	0.076
750.73	0.075
751.17	0.077
751.61	0.077
752.05	0.078
752.49	0.079
752.93	0.073
753.37	0.079
753.81	0.075
754.25	0.077
754.69	0.079
755.13	0.074
755.57	0.076
756.01	0.076
756.45	0.074
756.89	0.075
757.33	0.079
757.77	0.074
758.21	0.074
758.64	0.077
759.08	0.075
759.52	0.074
759.96	0.074
760.40	0.075
760.84	0.073
761.28	0.073
761.72	0.078
762.16	0.078
762.60	0.076
763.03	0.073
763.47	0.073
763.91	0.073
764.35	0.071
764.79	0.071
765.23	0.076
765.67	0.073
766.11	0.074
766.54	0.079
766.98	0.074
767.42	0.072
767.86	0.074
768.30	0.077
768.74	0.075
769.17	0.074
769.61	0.071
770.05	0.076
770.49	0.077
770.93	0.073
771.37	0.075
771.80	0.074
772.24	0.072
772.68	0.073
773.12	0.077
773.56	0.076
774.00	0.074
774.43	0.073
774.87	0.072
775.31	0.072
775.75	0.071
776.19	0.072
776.62	0.074
777.06	0.074
777.50	0.072
777.94	0.074
778.37	0.072
778.81	0.073
779.25	0.074
779.69	0.071
780.13	0.072
780.56	0.072
781.00	0.075
781.44	0.072
781.88	0.071
782.31	0.075
782.75	0.070
783.19	0.071
783.63	0.069
784.06	0.071
784.50	0.072
784.94	0.073
785.37	0.071
785.81	0.072
786.25	0.071
786.69	0.069
787.12	0.069
787.56	0.069
788.00	0.072
788.43	0.069
788.87	0.072
789.31	0.073
789.75	0.076
790.18	0.071
790.62	0.072
791.06	0.071
791.49	0.071
791.93	0.071
792.37	0.071
792.80	0.070
793.24	0.069
793.68	0.071
794.11	0.072
794.55	0.070
794.99	0.065
795.42	0.068
795.86	0.069
796.30	0.067
796.73	0.070
797.17	0.072
797.61	0.065
798.04	0.067
798.48	0.068
798.91	0.068
799.35	0.072
799.79	0.068
800.22	0.071
800.66	0.071
801.10	0.071
801.53	0.072
801.97	0.073
802.40	0.068
802.84	0.072
803.28	0.072
803.71	0.070
804.15	0.069
804.58	0.070
805.02	0.068
805.46	0.069
805.89	0.071
806.33	0.073
806.76	0.069
807.20	0.067
807.63	0.072
808.07	0.066
808.51	0.065
808.94	0.072
809.38	0.071
809.81	0.069
810.25	0.069
810.68	0.066
811.12	0.071
811.55	0.067
811.99	0.069
812.42	0.072
812.86	0.067
813.29	0.068
813.73	0.070
814.17	0.070
814.60	0.068
815.04	0.066
815.47	0.064
815.91	0.071
816.34	0.068
816.78	0.064
817.21	0.068
817.65	0.070
818.08	0.067
818.52	0.072
818.95	0.065
819.39	0.069
819.82	0.066
820.25	0.068
820.69	0.069
821.12	0.067
821.56	0.063
821.99	0.069
822.43	0.067
822.86	0.068
823.30	0.070
823.73	0.061
824.17	0.066
824.60	0.068
825.04	0.070
825.47	0.073
825.90	0.064
826.34	0.067
826.77	0.072
827.21	0.071
827.64	0.067
828.08	0.069
828.51	0.069
828.94	0.072
829.38	0.068
829.81	0.068
830.25	0.071
830.68	0.074
831.11	0.067
831.55	0.077
831.98	0.073
832.42	0.073
832.85	0.082
833.28	0.073
833.72	0.073
834.15	0.073
834.58	0.067
835.02	0.079
835.45	0.075
835.88	0.071
836.32	0.074
836.75	0.076
837.19	0.065
837.62	0.077
838.05	0.073
838.49	0.076
838.92	0.086
839.35	0.072
839.79	0.082
840.22	0.070
840.65	0.075
841.09	0.077
841.52	0.076
841.95	0.073
842.39	0.078
842.82	0.080
843.25	0.075
843.68	0.080
844.12	0.077
844.55	0.074
844.98	0.076
845.42	0.076
845.85	0.073
846.28	0.071
846.71	0.074
847.15	0.073
847.58	0.079
848.01	0.071
848.45	0.077
848.88	0.077
849.31	0.072
849.74	0.073
850.18	0.072
850.61	0.073
851.04	0.078
851.47	0.073
851.91	0.088
852.34	0.075
852.77	0.067
853.20	0.077
853.64	0.076
854.07	0.072
854.50	0.078
854.93	0.076
855.36	0.082
855.80	0.072
856.23	0.076
856.66	0.080
857.09	0.077
857.52	0.071
857.96	0.073
858.39	0.075
858.82	0.077
859.25	0.079
859.68	0.073
860.12	0.082
860.55	0.077
860.98	0.083
861.41	0.080
861.84	0.079
862.27	0.074
862.71	0.081
863.14	0.076
863.57	0.077
864.00	0.083
864.43	0.073
864.86	0.080
865.30	0.081
865.73	0.079
866.16	0.081
866.59	0.075
867.02	0.075
867.45	0.079
867.88	0.077
868.31	0.079
868.75	0.083
869.18	0.080
869.61	0.081
870.04	0.080
870.47	0.077
870.90	0.087
871.33	0.083
871.76	0.082
872.19	0.085
872.62	0.083
873.06	0.077
873.49	0.084
873.92	0.078
874.35	0.086
874.78	0.084
875.21	0.075
875.64	0.081
876.07	0.085
876.50	0.078
876.93	0.080
877.36	0.075
877.79	0.075
878.22	0.085
878.65	0.080
879.08	0.083
879.51	0.083
879.94	0.082
880.37	0.081
880.80	0.090
881.23	0.075
881.67	0.086
882.10	0.082
882.53	0.077
882.96	0.083
883.39	0.080
883.82	0.081
884.25	0.085
884.68	0.080
885.11	0.084
885.54	0.083
885.97	0.078
886.39	0.089
886.82	0.085
887.25	0.081
887.68	0.088
888.11	0.087
888.54	0.084
888.97	0.087
889.40	0.079
889.83	0.085
890.26	0.092
890.69	0.081
891.12	0.084
891.55	0.084
891.98	0.080
892.41	0.088
892.84	0.081
893.27	0.082
893.70	0.088
894.13	0.083
894.56	0.081
894.98	0.085
895.41	0.087
895.84	0.085
896.27	0.087
896.70	0.088
897.13	0.090
897.56	0.088
897.99	0.086
898.42	0.087
898.85	0.094
899.27	0.086
899.70	0.085
900.13	0.085
900.56	0.087
900.99	0.084
901.42	0.084
901.85	0.089
902.28	0.088
902.70	0.089
903.13	0.092
903.56	0.093
903.99	0.092
904.42	0.092
904.85	0.088
905.27	0.088
905.70	0.089
906.13	0.085
906.56	0.092
906.99	0.089
907.42	0.090
907.84	0.094
908.27	0.090
908.70	0.092
909.13	0.090
909.56	0.092
909.98	0.089
910.41	0.085
910.84	0.084
911.27	0.091
911.70	0.083
912.12	0.082
912.55	0.089
912.98	0.088
913.41	0.090
913.84	0.089
914.26	0.086
914.69	0.093
915.12	0.089
915.55	0.085
915.97	0.088
916.40	0.090
916.83	0.086
917.26	0.092
917.68	0.089
918.11	0.088
918.54	0.087
918.97	0.089
919.39	0.091
919.82	0.090
920.25	0.089
920.67	0.096
921.10	0.092
921.53	0.093
921.96	0.097
922.38	0.096
922.81	0.091
923.24	0.091
923.66	0.095
924.09	0.094
924.52	0.093
924.94	0.092
925.37	0.099
925.80	0.099
926.22	0.095
926.65	0.101
927.08	0.100
927.50	0.096
927.93	0.098
928.36	0.100
928.78	0.104
929.21	0.102
929.64	0.098
930.06	0.102
930.49	0.105
930.92	0.104
931.34	0.106
931.77	0.105
932.20	0.110
932.62	0.112
933.05	0.112
933.47	0.115
933.90	0.112
934.33	0.110
934.75	0.119
935.18	0.122
935.61	0.114
936.03	0.121
936.46	0.124
936.88	0.121
937.31	0.127
937.73	0.128
938.16	0.124
938.59	0.136
939.01	0.125
939.44	0.135
939.86	0.142
940.29	0.133
940.71	0.147
941.14	0.143
941.57	0.133
941.99	0.148
942.42	0.145
942.84	0.143
943.27	0.150
943.69	0.146
944.12	0.170
944.54	0.156
944.97	0.151
945.39	0.169
945.82	0.159
946.24	0.155
946.67	0.163
947.09	0.166
947.52	0.160
947.94	0.170
948.37	0.166
948.79	0.186
949.22	0.172
949.64	0.174
950.07	0.182
950.49	0.189
950.92	0.187
951.34	0.193
951.77	0.188
952.19	0.188
952.62	0.201
953.04	0.194
953.47	0.207
953.89	0.207
954.32	0.209
954.74	0.210
955.17	0.209
955.59	0.211
956.01	0.218
956.44	0.228
956.86	0.222
957.29	0.232
957.71	0.233
958.14	0.238
958.56	0.230
958.98	0.231
959.41	0.241
959.83	0.234
960.26	0.234
960.68	0.244
961.10	0.240
961.53	0.243
961.95	0.255
962.38	0.246
962.80	0.253
963.22	0.246
963.65	0.253
964.07	0.254
964.50	0.253
964.92	0.252
965.34	0.257
965.77	0.251
966.19	0.245
966.61	0.259
967.04	0.252
967.46	0.256
967.88	0.257
968.31	0.259
968.73	0.264
969.15	0.254
969.58	0.247
970.00	0.257
970.42	0.259
970.85	0.255
971.27	0.261
971.69	0.261
972.12	0.256
972.54	0.265
972.96	0.257
973.39	0.259
973.81	0.262
974.23	0.265
974.65	0.264
975.08	0.268
975.50	0.259
975.92	0.272
976.35	0.267
976.77	0.255
977.19	0.260
977.61	0.257
978.04	0.263
978.46	0.259
978.88	0.260
979.30	0.268
979.73	0.264
980.15	0.262
980.57	0.260
980.99	0.260
981.42	0.261
981.84	0.266
982.26	0.256
982.68	0.259
983.11	0.259
983.53	0.259
983.95	0.265
984.37	0.252
984.79	0.251
985.22	0.264
985.64	0.257
986.06	0.256
986.48	0.268
986.90	0.256
987.33	0.259
987.75	0.253
988.17	0.244
988.59	0.261
989.01	0.249
989.43	0.249
989.86	0.258
990.28	0.250
990.70	0.253
991.12	0.260
991.54	0.256
991.96	0.253
992.39	0.250
992.81	0.249
993.23	0.249
993.65	0.242
994.07	0.239
994.49	0.250
994.91	0.249
995.34	0.236
995.76	0.245
996.18	0.243
996.60	0.241
997.02	0.233
997.44	0.234
997.86	0.236
998.28	0.238
998.70	0.235
999.12	0.248
999.55	0.239
999.97	0.228
1000.39	0.238
1000.81	0.238
1001.23	0.227
1001.65	0.231
1002.07	0.223
1002.49	0.238
1002.91	0.224
1003.33	0.225
1003.75	0.236
1004.17	0.234
1004.59	0.219
1005.01	0.231
1005.43	0.227
1005.85	0.214
1006.28	0.229
1006.70	0.224
1007.12	0.230
1007.54	0.225
1007.96	0.219
1008.38	0.229
1008.80	0.220
1009.22	0.206
1009.64	0.221
1010.06	0.210
1010.48	0.211
1010.90	0.219
1011.32	0.219
1011.74	0.211
1012.16	0.209
1012.58	0.208
1013.00	0.218
1013.42	0.216
1013.84	0.205
1014.26	0.211
1014.67	0.207
1015.09	0.196
1015.51	0.208
1015.93	0.206
1016.35	0.204
1016.77	0.204
1017.19	0.186
1017.61	0.202
1018.03	0.202
1018.45	0.176
1018.87	0.206
1019.29	0.203
1019.71	0.182
1020.13	0.205
1020.55	0.198
1020.97	0.200
1021.38	0.195
1021.80	0.195
1022.22	0.208
1022.64	0.175
1023.06	0.172
1023.48	0.202
1023.90	0.193
1024.32	0.169
1024.74	0.185
1025.15	0.180
1025.57	0.179
1025.99	0.179
1026.41	0.171
1026.83	0.176
1027.25	0.180
1027.67	0.168
1028.08	0.196
1028.50	0.187
1028.92	0.165
1029.34	0.187
1029.76	0.166
1030.18	0.175
1030.60	0.155
1031.01	0.147
1031.43	0.169
1031.85	0.146
1032.27	0.148
1032.69	0.178
1033.10	0.157
1033.52	0.160
1033.94	0.172
1034.36	0.165
1034.78	0.163
1035.19	0.172
1035.61	0.136
1036.03	0.165
1036.45	0.150
1036.87	0.141
1037.28	0.163
1037.70	0.158
1038.12	0.150
1038.54	0.145
1038.95	0.148
1039.37	0.146
1039.79	0.160
1040.21	0.149
1040.62	0.156
1041.04	0.140
1041.46	0.141
1041.88	0.153
1042.29	0.133
1042.71	0.116
1043.13	0.152
1043.55	0.143
1043.96	0.143
1044.38	0.162
1044.80	0.136
1045.21	0.136
1045.63	0.141
1046.05	0.129
1046.47	0.150
1046.88	0.138
1047.30	0.134
1047.72	0.163
1048.13	0.138
1048.55	0.125
1048.97	0.149
1049.38	0.140
1049.80	0.133
1050.22	0.129
1050.63	0.136
1051.05	0.141
1051.47	0.127
1051.88	0.107
1052.30	0.156
1052.72	0.143
1053.13	0.120
1053.55	0.165
1053.97	0.144
1054.38	0.152
1054.80	0.156
1055.21	0.135
1055.63	0.164
1056.05	0.124
1056.46	0.139
1056.88	0.158
1057.29	0.140
1057.71	0.107
1058.13	0.139
1058.54	0.162
1058.96	0.146
1059.37	0.153
1059.79	0.136
1060.21	0.190
1060.62	0.183
1061.04	0.115
1061.45	0.229
1061.87	0.153
1062.28	0.074
1062.70	0.208
1063.12	0.177
1063.53	0.174
1063.95	0.183
1064.36	0.134
1064.78	0.184
1065.19	0.119
1065.61	0.132
1066.02	0.247
1066.44	0.163
1066.85	0.179
1067.27	0.223
1067.68	0.185
1068.10	0.073
1068.51	0.213
1068.93	0.150
1069.35	0.330
1069.76	0.191
1070.17	0.126
1070.59	0.373
1071.00	0.233
1071.42	-0.001
1071.83	0.405
1072.25	0.251
1072.66	0.244
1073.08	0.424
1073.49	0.199
1073.91	0.239
1074.32	0.258
1074.74	0.114
1075.15	0.591
1075.57	0.415
1075.98	0.091
1076.40	0.493
1076.81	0.271
1077.22	0.153
1077.64	0.275
1078.05	0.233
1078.47	0.185
1078.88	0.450
1079.30	0.569
1079.71	-0.000
1080.12	0.604
1080.54	0.227
1080.95	2.364
1081.37	0.580
1081.78	0.182
1082.19	-0.000
1082.61	0.350
1083.02	0.382
1083.44	-0.000
1083.85	0.253
1084.26	-0.000
1084.68	0.652
1085.09	0.194
1085.50	-0.000
1085.92	-0.000
1086.33	-0.045
1086.74	0.456
1087.16	0.515
1087.57	0.467
1087.98	-0.000
1088.40	0.284
1088.81	-0.000
1089.22	0.579
1089.64	0.158
1090.05	-0.000
1090.46	-0.166
1090.88	0.311
1091.29	-0.000
1091.70	-0.000
1092.12	0.740
1092.53	1.285
1092.94	0.708
1093.36	-0.000
1093.77	0.758
1094.18	0.338
1094.59	-0.000
1095.01	0.725
1095.42	0.041
1095.83	1.034
1096.25	0.753
1096.66	0.379
1097.07	0.744
1097.48	0.293
1097.90	-0.000
1098.31	-0.000
1098.72	0.574
1099.13	-0.000
>>>>>End Processed Spectral Data<<<<<
