SpectraSuite Data File
++++++++++++++++++++++++++++++++++++
Date: Mon Jul 10 14:13:17 CEST 2017
User: IPCE
Dark Spectrum Present: Yes
Reference Spectrum Present: Yes
Number of Sampled Component Spectra: 1
Spectrometers: HR+C0708
Integration Time (usec): 1000 (HR+C0708)
Spectra Averaged: 10 (HR+C0708)
Boxcar Smoothing: 0 (HR+C0708)
Correct for Electrical Dark: No (HR+C0708)
Strobe/Lamp Enabled: No (HR+C0708)
Correct for Detector Non-linearity: No (HR+C0708)
Correct for Stray Light: No (HR+C0708)
Number of Pixels in Processed Spectrum: 2048
>>>>>Begin Processed Spectral Data<<<<<
188.76	0.474
189.23	0.564
189.70	-0.000
190.17	0.645
190.64	0.289
191.12	-0.000
191.59	-0.000
192.06	-0.000
192.53	0.361
193.01	-0.000
193.48	-0.000
193.95	1.498
194.42	-0.000
194.90	-0.000
195.37	-0.000
195.84	0.412
196.31	-0.000
196.78	-0.000
197.26	0.506
197.73	0.311
198.20	-0.000
198.67	-0.000
199.14	0.340
199.62	-0.000
200.09	-0.000
200.56	-0.000
201.03	0.551
201.50	0.896
201.97	0.684
202.45	1.178
202.92	0.632
203.39	0.882
203.86	1.122
204.33	0.455
204.80	0.951
205.28	1.115
205.75	0.865
206.22	0.895
206.69	1.034
207.16	0.704
207.63	0.522
208.11	0.492
208.58	0.785
209.05	0.562
209.52	0.401
209.99	2.074
210.46	0.919
210.93	0.598
211.41	0.676
211.88	1.171
212.35	1.123
212.82	0.791
213.29	0.684
213.76	1.513
214.23	1.154
214.70	1.003
215.18	-0.000
215.65	0.954
216.12	0.562
216.59	0.643
217.06	0.808
217.53	0.902
218.00	0.591
218.47	0.927
218.94	1.520
219.41	0.830
219.89	0.700
220.36	0.622
220.83	0.786
221.30	0.735
221.77	0.869
222.24	-0.000
222.71	1.543
223.18	0.677
223.65	0.768
224.12	1.140
224.59	0.967
225.06	0.803
225.54	1.490
226.01	-0.000
226.48	1.075
226.95	1.637
227.42	1.129
227.89	1.193
228.36	1.951
228.83	1.375
229.30	1.656
229.77	1.527
230.24	1.825
230.71	2.060
231.18	-0.000
231.65	1.796
232.12	1.849
232.59	2.202
233.06	1.662
233.53	1.555
234.00	1.920
234.47	2.279
234.94	1.878
235.41	1.760
235.88	2.133
236.35	2.052
236.82	1.982
237.29	3.342
237.76	2.984
238.23	2.571
238.70	3.190
239.17	2.290
239.64	2.817
240.11	2.322
240.58	2.410
241.05	2.890
241.52	2.472
241.99	2.286
242.46	3.015
242.93	-0.000
243.40	2.536
243.87	2.931
244.34	3.529
244.81	2.773
245.28	2.917
245.75	2.389
246.22	2.811
246.69	2.768
247.16	2.701
247.63	3.116
248.10	3.070
248.57	2.501
249.04	2.471
249.51	3.117
249.98	2.722
250.45	2.674
250.92	2.749
251.39	3.284
251.85	2.491
252.32	2.549
252.79	3.620
253.26	2.871
253.73	2.670
254.20	2.747
254.67	2.878
255.14	3.007
255.61	2.621
256.08	2.749
256.55	2.818
257.02	2.840
257.49	2.901
257.95	3.423
258.42	2.827
258.89	2.525
259.36	3.051
259.83	2.951
260.30	2.795
260.77	2.654
261.24	2.840
261.71	2.790
262.17	2.668
262.64	2.843
263.11	2.888
263.58	3.160
264.05	2.754
264.52	2.720
264.99	2.819
265.46	2.781
265.92	2.767
266.39	3.010
266.86	3.517
267.33	2.993
267.80	2.617
268.27	2.759
268.74	2.923
269.20	2.690
269.67	2.763
270.14	3.178
270.61	2.824
271.08	2.772
271.55	2.927
272.01	2.906
272.48	2.813
272.95	2.772
273.42	3.012
273.89	2.945
274.36	2.671
274.82	2.708
275.29	2.885
275.76	2.744
276.23	2.681
276.70	2.561
277.16	2.869
277.63	2.873
278.10	2.650
278.57	3.102
279.04	2.729
279.50	2.413
279.97	2.630
280.44	2.682
280.91	2.619
281.38	2.623
281.84	2.619
282.31	2.686
282.78	2.579
283.25	2.546
283.72	2.757
284.18	2.643
284.65	2.622
285.12	2.533
285.59	2.678
286.05	2.574
286.52	2.644
286.99	2.658
287.46	2.534
287.92	2.524
288.39	2.587
288.86	2.667
289.33	2.551
289.79	2.550
290.26	2.598
290.73	2.474
291.20	2.378
291.66	2.545
292.13	2.521
292.60	2.424
293.07	2.481
293.53	2.503
294.00	2.400
294.47	2.481
294.93	2.336
295.40	2.434
295.87	2.400
296.34	2.334
296.80	2.466
297.27	2.442
297.74	2.383
298.20	2.364
298.67	2.321
299.14	2.403
299.60	2.271
300.07	2.245
300.54	2.366
301.01	2.311
301.47	2.265
301.94	2.345
302.41	2.398
302.87	2.284
303.34	2.283
303.81	2.193
304.27	2.228
304.74	2.217
305.21	2.119
305.67	2.171
306.14	2.212
306.61	2.110
307.07	2.224
307.54	2.189
308.01	2.180
308.47	2.135
308.94	2.211
309.40	2.180
309.87	2.135
310.34	2.099
310.80	2.130
311.27	2.142
311.74	2.129
312.20	2.092
312.67	2.221
313.13	2.125
313.60	2.081
314.07	2.130
314.53	2.127
315.00	2.082
315.47	2.075
315.93	2.146
316.40	2.056
316.86	2.091
317.33	2.137
317.80	2.115
318.26	2.094
318.73	2.139
319.19	2.080
319.66	2.027
320.13	2.082
320.59	2.003
321.06	2.079
321.52	2.027
321.99	2.018
322.45	2.047
322.92	2.063
323.39	1.994
323.85	2.040
324.32	2.046
324.78	2.033
325.25	2.041
325.71	2.002
326.18	1.973
326.64	1.952
327.11	1.949
327.58	1.995
328.04	1.918
328.51	1.923
328.97	1.959
329.44	1.935
329.90	1.896
330.37	1.959
330.83	1.878
331.30	1.950
331.76	1.905
332.23	1.857
332.69	1.863
333.16	1.829
333.62	1.793
334.09	1.825
334.56	1.741
335.02	1.731
335.49	1.730
335.95	1.704
336.42	1.673
336.88	1.614
337.35	1.601
337.81	1.581
338.28	1.544
338.74	1.503
339.20	1.504
339.67	1.481
340.13	1.420
340.60	1.396
341.06	1.364
341.53	1.326
341.99	1.292
342.46	1.245
342.92	1.227
343.39	1.193
343.85	1.154
344.32	1.131
344.78	1.110
345.25	1.072
345.71	1.045
346.17	1.015
346.64	0.979
347.10	0.944
347.57	0.912
348.03	0.886
348.50	0.855
348.96	0.829
349.43	0.810
349.89	0.781
350.35	0.757
350.82	0.740
351.28	0.715
351.75	0.696
352.21	0.673
352.67	0.651
353.14	0.645
353.60	0.627
354.07	0.602
354.53	0.594
355.00	0.579
355.46	0.562
355.92	0.556
356.39	0.536
356.85	0.529
357.31	0.522
357.78	0.507
358.24	0.505
358.71	0.496
359.17	0.484
359.63	0.484
360.10	0.476
360.56	0.469
361.03	0.463
361.49	0.459
361.95	0.455
362.42	0.453
362.88	0.449
363.34	0.447
363.81	0.442
364.27	0.444
364.73	0.437
365.20	0.435
365.66	0.431
366.12	0.428
366.59	0.426
367.05	0.424
367.51	0.422
367.98	0.421
368.44	0.417
368.90	0.418
369.37	0.414
369.83	0.411
370.29	0.412
370.76	0.407
371.22	0.406
371.68	0.406
372.15	0.405
372.61	0.402
373.07	0.402
373.54	0.395
374.00	0.401
374.46	0.398
374.92	0.396
375.39	0.392
375.85	0.392
376.31	0.393
376.78	0.387
377.24	0.385
377.70	0.385
378.16	0.388
378.63	0.388
379.09	0.383
379.55	0.379
380.01	0.380
380.48	0.380
380.94	0.378
381.40	0.378
381.87	0.379
382.33	0.376
382.79	0.374
383.25	0.372
383.72	0.373
384.18	0.370
384.64	0.372
385.10	0.368
385.56	0.365
386.03	0.362
386.49	0.363
386.95	0.365
387.41	0.362
387.88	0.357
388.34	0.359
388.80	0.361
389.26	0.355
389.72	0.355
390.19	0.357
390.65	0.351
391.11	0.352
391.57	0.354
392.04	0.351
392.50	0.352
392.96	0.347
393.42	0.349
393.88	0.345
394.34	0.344
394.81	0.346
395.27	0.345
395.73	0.342
396.19	0.341
396.65	0.344
397.12	0.337
397.58	0.339
398.04	0.338
398.50	0.336
398.96	0.337
399.42	0.338
399.89	0.338
400.35	0.333
400.81	0.334
401.27	0.331
401.73	0.331
402.19	0.328
402.65	0.330
403.12	0.325
403.58	0.327
404.04	0.324
404.50	0.325
404.96	0.325
405.42	0.321
405.88	0.320
406.34	0.320
406.81	0.320
407.27	0.320
407.73	0.318
408.19	0.314
408.65	0.316
409.11	0.315
409.57	0.315
410.03	0.312
410.49	0.310
410.96	0.314
411.42	0.310
411.88	0.310
412.34	0.310
412.80	0.310
413.26	0.307
413.72	0.309
414.18	0.303
414.64	0.302
415.10	0.306
415.56	0.303
416.02	0.303
416.48	0.304
416.95	0.296
417.41	0.297
417.87	0.301
418.33	0.297
418.79	0.297
419.25	0.294
419.71	0.295
420.17	0.296
420.63	0.296
421.09	0.294
421.55	0.295
422.01	0.291
422.47	0.290
422.93	0.291
423.39	0.290
423.85	0.285
424.31	0.288
424.77	0.290
425.23	0.287
425.69	0.286
426.15	0.286
426.61	0.282
427.07	0.284
427.53	0.283
427.99	0.281
428.45	0.281
428.91	0.280
429.37	0.281
429.83	0.281
430.29	0.284
430.75	0.282
431.21	0.279
431.67	0.278
432.13	0.275
432.59	0.275
433.05	0.273
433.51	0.273
433.97	0.273
434.43	0.274
434.89	0.271
435.35	0.269
435.81	0.269
436.27	0.268
436.73	0.268
437.19	0.273
437.65	0.272
438.11	0.269
438.57	0.269
439.03	0.263
439.48	0.264
439.94	0.264
440.40	0.262
440.86	0.263
441.32	0.258
441.78	0.261
442.24	0.262
442.70	0.258
443.16	0.258
443.62	0.256
444.08	0.259
444.54	0.261
444.99	0.258
445.45	0.258
445.91	0.253
446.37	0.254
446.83	0.253
447.29	0.250
447.75	0.253
448.21	0.252
448.67	0.253
449.12	0.250
449.58	0.248
450.04	0.253
450.50	0.246
450.96	0.244
451.42	0.249
451.88	0.247
452.34	0.247
452.79	0.245
453.25	0.249
453.71	0.246
454.17	0.245
454.63	0.242
455.09	0.246
455.55	0.242
456.00	0.240
456.46	0.239
456.92	0.241
457.38	0.233
457.84	0.237
458.30	0.238
458.75	0.238
459.21	0.236
459.67	0.239
460.13	0.235
460.59	0.235
461.04	0.236
461.50	0.236
461.96	0.234
462.42	0.232
462.88	0.236
463.33	0.235
463.79	0.235
464.25	0.235
464.71	0.233
465.17	0.234
465.62	0.232
466.08	0.234
466.54	0.230
467.00	0.233
467.46	0.232
467.91	0.230
468.37	0.229
468.83	0.231
469.29	0.229
469.74	0.229
470.20	0.227
470.66	0.227
471.12	0.228
471.57	0.227
472.03	0.224
472.49	0.228
472.95	0.226
473.40	0.222
473.86	0.224
474.32	0.224
474.78	0.222
475.23	0.222
475.69	0.223
476.15	0.222
476.60	0.221
477.06	0.219
477.52	0.219
477.98	0.221
478.43	0.221
478.89	0.218
479.35	0.217
479.80	0.217
480.26	0.219
480.72	0.218
481.18	0.216
481.63	0.216
482.09	0.215
482.55	0.216
483.00	0.215
483.46	0.214
483.92	0.213
484.37	0.216
484.83	0.213
485.29	0.214
485.74	0.212
486.20	0.215
486.66	0.212
487.11	0.214
487.57	0.212
488.03	0.212
488.48	0.212
488.94	0.212
489.40	0.211
489.85	0.212
490.31	0.212
490.77	0.210
491.22	0.208
491.68	0.209
492.13	0.208
492.59	0.207
493.05	0.206
493.50	0.206
493.96	0.207
494.42	0.206
494.87	0.206
495.33	0.207
495.78	0.208
496.24	0.205
496.70	0.203
497.15	0.205
497.61	0.203
498.06	0.204
498.52	0.203
498.98	0.202
499.43	0.204
499.89	0.202
500.34	0.202
500.80	0.201
501.25	0.203
501.71	0.199
502.17	0.200
502.62	0.199
503.08	0.199
503.53	0.199
503.99	0.198
504.44	0.198
504.90	0.199
505.36	0.196
505.81	0.196
506.27	0.197
506.72	0.196
507.18	0.195
507.63	0.196
508.09	0.196
508.54	0.193
509.00	0.195
509.45	0.196
509.91	0.194
510.36	0.194
510.82	0.196
511.27	0.197
511.73	0.193
512.19	0.193
512.64	0.192
513.10	0.192
513.55	0.190
514.01	0.189
514.46	0.190
514.92	0.190
515.37	0.188
515.83	0.190
516.28	0.189
516.73	0.185
517.19	0.187
517.64	0.190
518.10	0.190
518.55	0.187
519.01	0.188
519.46	0.186
519.92	0.188
520.37	0.185
520.83	0.188
521.28	0.187
521.74	0.187
522.19	0.183
522.65	0.183
523.10	0.183
523.55	0.187
524.01	0.184
524.46	0.183
524.92	0.183
525.37	0.183
525.83	0.181
526.28	0.183
526.73	0.182
527.19	0.182
527.64	0.182
528.10	0.182
528.55	0.181
529.01	0.181
529.46	0.182
529.91	0.180
530.37	0.179
530.82	0.178
531.28	0.181
531.73	0.180
532.18	0.180
532.64	0.180
533.09	0.178
533.54	0.179
534.00	0.178
534.45	0.181
534.91	0.181
535.36	0.178
535.81	0.178
536.27	0.179
536.72	0.178
537.17	0.174
537.63	0.183
538.08	0.179
538.54	0.176
538.99	0.180
539.44	0.179
539.90	0.177
540.35	0.178
540.80	0.177
541.26	0.175
541.71	0.176
542.16	0.176
542.62	0.176
543.07	0.173
543.52	0.175
543.98	0.177
544.43	0.174
544.88	0.176
545.34	0.175
545.79	0.175
546.24	0.174
546.69	0.173
547.15	0.176
547.60	0.175
548.05	0.176
548.51	0.175
548.96	0.173
549.41	0.176
549.86	0.176
550.32	0.176
550.77	0.173
551.22	0.178
551.68	0.175
552.13	0.175
552.58	0.174
553.03	0.176
553.49	0.175
553.94	0.176
554.39	0.177
554.84	0.174
555.30	0.173
555.75	0.174
556.20	0.173
556.65	0.175
557.11	0.175
557.56	0.176
558.01	0.176
558.46	0.177
558.92	0.177
559.37	0.175
559.82	0.174
560.27	0.175
560.72	0.176
561.18	0.178
561.63	0.174
562.08	0.175
562.53	0.175
562.99	0.174
563.44	0.177
563.89	0.175
564.34	0.175
564.79	0.174
565.25	0.177
565.70	0.177
566.15	0.177
566.60	0.174
567.05	0.178
567.50	0.176
567.96	0.178
568.41	0.177
568.86	0.178
569.31	0.179
569.76	0.177
570.21	0.178
570.67	0.177
571.12	0.175
571.57	0.179
572.02	0.178
572.47	0.176
572.92	0.178
573.37	0.179
573.83	0.176
574.28	0.175
574.73	0.179
575.18	0.178
575.63	0.177
576.08	0.179
576.53	0.180
576.98	0.181
577.44	0.179
577.89	0.179
578.34	0.181
578.79	0.182
579.24	0.181
579.69	0.181
580.14	0.183
580.59	0.181
581.04	0.182
581.49	0.183
581.95	0.183
582.40	0.183
582.85	0.183
583.30	0.183
583.75	0.184
584.20	0.188
584.65	0.185
585.10	0.185
585.55	0.186
586.00	0.188
586.45	0.188
586.90	0.188
587.35	0.190
587.80	0.190
588.25	0.191
588.71	0.191
589.16	0.192
589.61	0.193
590.06	0.193
590.51	0.195
590.96	0.193
591.41	0.195
591.86	0.196
592.31	0.196
592.76	0.195
593.21	0.196
593.66	0.198
594.11	0.199
594.56	0.199
595.01	0.201
595.46	0.201
595.91	0.203
596.36	0.203
596.81	0.205
597.26	0.207
597.71	0.205
598.16	0.207
598.61	0.207
599.06	0.208
599.51	0.209
599.96	0.208
600.41	0.209
600.86	0.209
601.31	0.212
601.76	0.211
602.21	0.212
602.65	0.211
603.10	0.215
603.55	0.216
604.00	0.217
604.45	0.218
604.90	0.219
605.35	0.218
605.80	0.218
606.25	0.218
606.70	0.220
607.15	0.220
607.60	0.218
608.05	0.222
608.50	0.221
608.95	0.222
609.39	0.222
609.84	0.224
610.29	0.224
610.74	0.225
611.19	0.225
611.64	0.226
612.09	0.224
612.54	0.225
612.99	0.226
613.44	0.227
613.88	0.227
614.33	0.227
614.78	0.226
615.23	0.225
615.68	0.226
616.13	0.229
616.58	0.228
617.03	0.227
617.47	0.229
617.92	0.226
618.37	0.229
618.82	0.227
619.27	0.230
619.72	0.228
620.17	0.226
620.61	0.229
621.06	0.230
621.51	0.229
621.96	0.228
622.41	0.229
622.86	0.229
623.30	0.230
623.75	0.228
624.20	0.231
624.65	0.233
625.10	0.230
625.54	0.230
625.99	0.231
626.44	0.234
626.89	0.230
627.34	0.233
627.78	0.233
628.23	0.233
628.68	0.234
629.13	0.235
629.58	0.233
630.02	0.236
630.47	0.237
630.92	0.238
631.37	0.237
631.81	0.236
632.26	0.240
632.71	0.238
633.16	0.241
633.61	0.241
634.05	0.242
634.50	0.242
634.95	0.244
635.40	0.245
635.84	0.244
636.29	0.246
636.74	0.247
637.18	0.246
637.63	0.248
638.08	0.249
638.53	0.251
638.97	0.253
639.42	0.256
639.87	0.254
640.32	0.254
640.76	0.256
641.21	0.260
641.66	0.257
642.10	0.260
642.55	0.261
643.00	0.262
643.44	0.265
643.89	0.265
644.34	0.266
644.79	0.271
645.23	0.271
645.68	0.273
646.13	0.275
646.57	0.276
647.02	0.278
647.47	0.278
647.91	0.278
648.36	0.281
648.81	0.283
649.25	0.283
649.70	0.284
650.15	0.285
650.59	0.289
651.04	0.287
651.48	0.291
651.93	0.291
652.38	0.291
652.82	0.291
653.27	0.294
653.72	0.297
654.16	0.298
654.61	0.299
655.06	0.300
655.50	0.298
655.95	0.300
656.39	0.301
656.84	0.303
657.29	0.302
657.73	0.306
658.18	0.309
658.62	0.307
659.07	0.309
659.52	0.307
659.96	0.310
660.41	0.310
660.85	0.309
661.30	0.310
661.74	0.311
662.19	0.310
662.64	0.313
663.08	0.312
663.53	0.316
663.97	0.312
664.42	0.312
664.86	0.313
665.31	0.312
665.75	0.311
666.20	0.311
666.65	0.312
667.09	0.309
667.54	0.308
667.98	0.306
668.43	0.305
668.87	0.306
669.32	0.303
669.76	0.300
670.21	0.298
670.65	0.298
671.10	0.298
671.54	0.295
671.99	0.294
672.43	0.291
672.88	0.286
673.32	0.284
673.77	0.282
674.21	0.280
674.66	0.276
675.10	0.270
675.55	0.267
675.99	0.264
676.44	0.259
676.88	0.259
677.33	0.253
677.77	0.248
678.22	0.245
678.66	0.242
679.11	0.235
679.55	0.232
679.99	0.228
680.44	0.225
680.88	0.222
681.33	0.217
681.77	0.213
682.22	0.209
682.66	0.206
683.11	0.200
683.55	0.196
683.99	0.193
684.44	0.192
684.88	0.186
685.33	0.182
685.77	0.179
686.21	0.179
686.66	0.174
687.10	0.167
687.55	0.168
687.99	0.165
688.44	0.161
688.88	0.159
689.32	0.155
689.77	0.153
690.21	0.153
690.65	0.147
691.10	0.145
691.54	0.146
691.99	0.143
692.43	0.139
692.87	0.137
693.32	0.135
693.76	0.134
694.20	0.133
694.65	0.129
695.09	0.130
695.53	0.129
695.98	0.128
696.42	0.126
696.86	0.122
697.31	0.123
697.75	0.122
698.19	0.121
698.64	0.120
699.08	0.120
699.52	0.118
699.97	0.116
700.41	0.117
700.85	0.116
701.30	0.115
701.74	0.113
702.18	0.112
702.63	0.112
703.07	0.111
703.51	0.112
703.96	0.112
704.40	0.111
704.84	0.111
705.28	0.108
705.73	0.109
706.17	0.107
706.61	0.108
707.06	0.107
707.50	0.107
707.94	0.105
708.38	0.101
708.83	0.104
709.27	0.105
709.71	0.104
710.15	0.104
710.60	0.105
711.04	0.103
711.48	0.103
711.92	0.103
712.37	0.104
712.81	0.104
713.25	0.103
713.69	0.106
714.13	0.103
714.58	0.101
715.02	0.104
715.46	0.100
715.90	0.099
716.35	0.101
716.79	0.101
717.23	0.101
717.67	0.101
718.11	0.102
718.56	0.102
719.00	0.100
719.44	0.102
719.88	0.101
720.32	0.099
720.76	0.100
721.21	0.099
721.65	0.098
722.09	0.100
722.53	0.101
722.97	0.101
723.41	0.097
723.86	0.102
724.30	0.100
724.74	0.100
725.18	0.100
725.62	0.098
726.06	0.099
726.50	0.101
726.95	0.102
727.39	0.101
727.83	0.102
728.27	0.098
728.71	0.097
729.15	0.098
729.59	0.101
730.03	0.099
730.48	0.098
730.92	0.100
731.36	0.098
731.80	0.099
732.24	0.098
732.68	0.098
733.12	0.102
733.56	0.101
734.00	0.100
734.44	0.100
734.89	0.100
735.33	0.100
735.77	0.100
736.21	0.102
736.65	0.102
737.09	0.100
737.53	0.103
737.97	0.099
738.41	0.098
738.85	0.101
739.29	0.102
739.73	0.101
740.17	0.103
740.61	0.100
741.05	0.098
741.49	0.100
741.93	0.097
742.37	0.103
742.81	0.100
743.26	0.100
743.70	0.100
744.14	0.100
744.58	0.101
745.02	0.099
745.46	0.099
745.90	0.099
746.34	0.101
746.78	0.097
747.22	0.100
747.66	0.099
748.10	0.098
748.54	0.098
748.98	0.097
749.42	0.100
749.86	0.100
750.29	0.097
750.73	0.095
751.17	0.096
751.61	0.099
752.05	0.099
752.49	0.099
752.93	0.094
753.37	0.099
753.81	0.098
754.25	0.096
754.69	0.099
755.13	0.096
755.57	0.100
756.01	0.098
756.45	0.098
756.89	0.095
757.33	0.100
757.77	0.096
758.21	0.093
758.64	0.101
759.08	0.095
759.52	0.095
759.96	0.094
760.40	0.094
760.84	0.096
761.28	0.093
761.72	0.097
762.16	0.097
762.60	0.095
763.03	0.093
763.47	0.095
763.91	0.092
764.35	0.092
764.79	0.093
765.23	0.097
765.67	0.094
766.11	0.094
766.54	0.097
766.98	0.097
767.42	0.093
767.86	0.096
768.30	0.095
768.74	0.092
769.17	0.094
769.61	0.094
770.05	0.096
770.49	0.095
770.93	0.095
771.37	0.090
771.80	0.094
772.24	0.095
772.68	0.094
773.12	0.096
773.56	0.093
774.00	0.092
774.43	0.092
774.87	0.092
775.31	0.092
775.75	0.092
776.19	0.094
776.62	0.093
777.06	0.096
777.50	0.093
777.94	0.093
778.37	0.093
778.81	0.095
779.25	0.094
779.69	0.088
780.13	0.093
780.56	0.093
781.00	0.092
781.44	0.093
781.88	0.092
782.31	0.090
782.75	0.093
783.19	0.091
783.63	0.092
784.06	0.093
784.50	0.092
784.94	0.094
785.37	0.091
785.81	0.091
786.25	0.090
786.69	0.092
787.12	0.089
787.56	0.091
788.00	0.093
788.43	0.089
788.87	0.089
789.31	0.089
789.75	0.090
790.18	0.089
790.62	0.091
791.06	0.093
791.49	0.089
791.93	0.090
792.37	0.090
792.80	0.090
793.24	0.086
793.68	0.091
794.11	0.089
794.55	0.090
794.99	0.088
795.42	0.090
795.86	0.085
796.30	0.088
796.73	0.087
797.17	0.094
797.61	0.089
798.04	0.085
798.48	0.086
798.91	0.085
799.35	0.091
799.79	0.086
800.22	0.089
800.66	0.089
801.10	0.089
801.53	0.088
801.97	0.091
802.40	0.089
802.84	0.088
803.28	0.089
803.71	0.090
804.15	0.089
804.58	0.087
805.02	0.090
805.46	0.091
805.89	0.088
806.33	0.087
806.76	0.087
807.20	0.086
807.63	0.089
808.07	0.086
808.51	0.083
808.94	0.090
809.38	0.089
809.81	0.088
810.25	0.089
810.68	0.088
811.12	0.088
811.55	0.086
811.99	0.090
812.42	0.084
812.86	0.086
813.29	0.087
813.73	0.087
814.17	0.087
814.60	0.089
815.04	0.092
815.47	0.088
815.91	0.086
816.34	0.086
816.78	0.086
817.21	0.083
817.65	0.085
818.08	0.088
818.52	0.085
818.95	0.081
819.39	0.087
819.82	0.082
820.25	0.087
820.69	0.082
821.12	0.087
821.56	0.085
821.99	0.085
822.43	0.082
822.86	0.085
823.30	0.083
823.73	0.083
824.17	0.084
824.60	0.084
825.04	0.084
825.47	0.085
825.90	0.086
826.34	0.087
826.77	0.087
827.21	0.088
827.64	0.090
828.08	0.089
828.51	0.088
828.94	0.090
829.38	0.086
829.81	0.085
830.25	0.091
830.68	0.089
831.11	0.091
831.55	0.093
831.98	0.094
832.42	0.089
832.85	0.096
833.28	0.090
833.72	0.093
834.15	0.094
834.58	0.088
835.02	0.097
835.45	0.090
835.88	0.092
836.32	0.090
836.75	0.093
837.19	0.090
837.62	0.091
838.05	0.090
838.49	0.093
838.92	0.097
839.35	0.092
839.79	0.096
840.22	0.089
840.65	0.091
841.09	0.093
841.52	0.089
841.95	0.090
842.39	0.092
842.82	0.091
843.25	0.092
843.68	0.099
844.12	0.095
844.55	0.091
844.98	0.096
845.42	0.091
845.85	0.092
846.28	0.086
846.71	0.095
847.15	0.094
847.58	0.098
848.01	0.098
848.45	0.097
848.88	0.095
849.31	0.090
849.74	0.094
850.18	0.090
850.61	0.087
851.04	0.094
851.47	0.097
851.91	0.094
852.34	0.092
852.77	0.092
853.20	0.092
853.64	0.092
854.07	0.089
854.50	0.094
854.93	0.095
855.36	0.093
855.80	0.097
856.23	0.096
856.66	0.095
857.09	0.093
857.52	0.095
857.96	0.085
858.39	0.091
858.82	0.095
859.25	0.094
859.68	0.094
860.12	0.089
860.55	0.097
860.98	0.100
861.41	0.096
861.84	0.095
862.27	0.092
862.71	0.096
863.14	0.091
863.57	0.094
864.00	0.097
864.43	0.089
864.86	0.094
865.30	0.093
865.73	0.093
866.16	0.093
866.59	0.094
867.02	0.098
867.45	0.091
867.88	0.094
868.31	0.092
868.75	0.099
869.18	0.094
869.61	0.095
870.04	0.098
870.47	0.091
870.90	0.090
871.33	0.100
871.76	0.092
872.19	0.091
872.62	0.096
873.06	0.098
873.49	0.096
873.92	0.091
874.35	0.097
874.78	0.102
875.21	0.092
875.64	0.092
876.07	0.096
876.50	0.095
876.93	0.102
877.36	0.102
877.79	0.092
878.22	0.091
878.65	0.097
879.08	0.100
879.51	0.101
879.94	0.092
880.37	0.097
880.80	0.101
881.23	0.101
881.67	0.097
882.10	0.095
882.53	0.096
882.96	0.102
883.39	0.099
883.82	0.096
884.25	0.101
884.68	0.094
885.11	0.093
885.54	0.097
885.97	0.097
886.39	0.094
886.82	0.102
887.25	0.097
887.68	0.102
888.11	0.103
888.54	0.105
888.97	0.103
889.40	0.092
889.83	0.094
890.26	0.105
890.69	0.103
891.12	0.099
891.55	0.097
891.98	0.098
892.41	0.100
892.84	0.101
893.27	0.100
893.70	0.100
894.13	0.096
894.56	0.096
894.98	0.102
895.41	0.103
895.84	0.101
896.27	0.103
896.70	0.104
897.13	0.104
897.56	0.104
897.99	0.100
898.42	0.101
898.85	0.102
899.27	0.103
899.70	0.101
900.13	0.103
900.56	0.103
900.99	0.100
901.42	0.103
901.85	0.103
902.28	0.104
902.70	0.106
903.13	0.104
903.56	0.104
903.99	0.107
904.42	0.106
904.85	0.109
905.27	0.105
905.70	0.103
906.13	0.106
906.56	0.103
906.99	0.105
907.42	0.102
907.84	0.106
908.27	0.104
908.70	0.101
909.13	0.100
909.56	0.104
909.98	0.102
910.41	0.102
910.84	0.098
911.27	0.100
911.70	0.099
912.12	0.108
912.55	0.103
912.98	0.104
913.41	0.103
913.84	0.103
914.26	0.100
914.69	0.104
915.12	0.101
915.55	0.098
915.97	0.099
916.40	0.106
916.83	0.100
917.26	0.104
917.68	0.100
918.11	0.102
918.54	0.105
918.97	0.105
919.39	0.105
919.82	0.106
920.25	0.104
920.67	0.109
921.10	0.106
921.53	0.103
921.96	0.110
922.38	0.110
922.81	0.108
923.24	0.104
923.66	0.107
924.09	0.108
924.52	0.104
924.94	0.107
925.37	0.107
925.80	0.109
926.22	0.108
926.65	0.114
927.08	0.110
927.50	0.108
927.93	0.114
928.36	0.117
928.78	0.116
929.21	0.119
929.64	0.117
930.06	0.115
930.49	0.117
930.92	0.123
931.34	0.119
931.77	0.117
932.20	0.123
932.62	0.125
933.05	0.126
933.47	0.131
933.90	0.130
934.33	0.129
934.75	0.129
935.18	0.135
935.61	0.133
936.03	0.130
936.46	0.135
936.88	0.140
937.31	0.142
937.73	0.135
938.16	0.135
938.59	0.145
939.01	0.146
939.44	0.144
939.86	0.147
940.29	0.146
940.71	0.146
941.14	0.158
941.57	0.157
941.99	0.166
942.42	0.162
942.84	0.160
943.27	0.169
943.69	0.162
944.12	0.179
944.54	0.171
944.97	0.169
945.39	0.171
945.82	0.176
946.24	0.171
946.67	0.173
947.09	0.183
947.52	0.182
947.94	0.185
948.37	0.183
948.79	0.192
949.22	0.189
949.64	0.193
950.07	0.191
950.49	0.199
950.92	0.211
951.34	0.203
951.77	0.205
952.19	0.201
952.62	0.213
953.04	0.218
953.47	0.218
953.89	0.229
954.32	0.222
954.74	0.219
955.17	0.230
955.59	0.231
956.01	0.231
956.44	0.239
956.86	0.241
957.29	0.242
957.71	0.244
958.14	0.251
958.56	0.249
958.98	0.250
959.41	0.249
959.83	0.250
960.26	0.253
960.68	0.253
961.10	0.254
961.53	0.259
961.95	0.266
962.38	0.261
962.80	0.261
963.22	0.267
963.65	0.265
964.07	0.265
964.50	0.264
964.92	0.271
965.34	0.262
965.77	0.268
966.19	0.270
966.61	0.268
967.04	0.271
967.46	0.270
967.88	0.270
968.31	0.269
968.73	0.270
969.15	0.277
969.58	0.267
970.00	0.272
970.42	0.267
970.85	0.269
971.27	0.279
971.69	0.269
972.12	0.271
972.54	0.276
972.96	0.263
973.39	0.275
973.81	0.283
974.23	0.274
974.65	0.273
975.08	0.275
975.50	0.273
975.92	0.278
976.35	0.273
976.77	0.274
977.19	0.280
977.61	0.277
978.04	0.279
978.46	0.277
978.88	0.270
979.30	0.280
979.73	0.276
980.15	0.278
980.57	0.274
980.99	0.275
981.42	0.277
981.84	0.274
982.26	0.277
982.68	0.275
983.11	0.275
983.53	0.275
983.95	0.271
984.37	0.270
984.79	0.269
985.22	0.272
985.64	0.266
986.06	0.264
986.48	0.275
986.90	0.272
987.33	0.271
987.75	0.258
988.17	0.259
988.59	0.266
989.01	0.267
989.43	0.264
989.86	0.263
990.28	0.258
990.70	0.268
991.12	0.266
991.54	0.258
991.96	0.260
992.39	0.261
992.81	0.257
993.23	0.254
993.65	0.259
994.07	0.260
994.49	0.258
994.91	0.254
995.34	0.261
995.76	0.253
996.18	0.253
996.60	0.251
997.02	0.247
997.44	0.241
997.86	0.248
998.28	0.253
998.70	0.246
999.12	0.251
999.55	0.249
999.97	0.256
1000.39	0.248
1000.81	0.248
1001.23	0.251
1001.65	0.248
1002.07	0.241
1002.49	0.240
1002.91	0.240
1003.33	0.246
1003.75	0.237
1004.17	0.246
1004.59	0.250
1005.01	0.236
1005.43	0.237
1005.85	0.231
1006.28	0.248
1006.70	0.237
1007.12	0.242
1007.54	0.228
1007.96	0.227
1008.38	0.229
1008.80	0.230
1009.22	0.241
1009.64	0.231
1010.06	0.223
1010.48	0.233
1010.90	0.226
1011.32	0.222
1011.74	0.226
1012.16	0.230
1012.58	0.225
1013.00	0.220
1013.42	0.229
1013.84	0.229
1014.26	0.215
1014.67	0.221
1015.09	0.224
1015.51	0.216
1015.93	0.214
1016.35	0.207
1016.77	0.218
1017.19	0.199
1017.61	0.205
1018.03	0.217
1018.45	0.203
1018.87	0.212
1019.29	0.218
1019.71	0.204
1020.13	0.203
1020.55	0.202
1020.97	0.205
1021.38	0.209
1021.80	0.202
1022.22	0.203
1022.64	0.195
1023.06	0.194
1023.48	0.189
1023.90	0.214
1024.32	0.197
1024.74	0.207
1025.15	0.194
1025.57	0.197
1025.99	0.184
1026.41	0.190
1026.83	0.187
1027.25	0.199
1027.67	0.179
1028.08	0.186
1028.50	0.204
1028.92	0.179
1029.34	0.178
1029.76	0.186
1030.18	0.197
1030.60	0.173
1031.01	0.159
1031.43	0.196
1031.85	0.179
1032.27	0.163
1032.69	0.164
1033.10	0.168
1033.52	0.173
1033.94	0.170
1034.36	0.167
1034.78	0.165
1035.19	0.176
1035.61	0.152
1036.03	0.159
1036.45	0.184
1036.87	0.163
1037.28	0.139
1037.70	0.166
1038.12	0.176
1038.54	0.156
1038.95	0.159
1039.37	0.162
1039.79	0.175
1040.21	0.162
1040.62	0.165
1041.04	0.156
1041.46	0.152
1041.88	0.144
1042.29	0.171
1042.71	0.156
1043.13	0.150
1043.55	0.153
1043.96	0.172
1044.38	0.147
1044.80	0.156
1045.21	0.146
1045.63	0.133
1046.05	0.135
1046.47	0.158
1046.88	0.172
1047.30	0.161
1047.72	0.152
1048.13	0.158
1048.55	0.157
1048.97	0.147
1049.38	0.159
1049.80	0.152
1050.22	0.147
1050.63	0.152
1051.05	0.131
1051.47	0.166
1051.88	0.158
1052.30	0.145
1052.72	0.142
1053.13	0.154
1053.55	0.162
1053.97	0.153
1054.38	0.180
1054.80	0.159
1055.21	0.140
1055.63	0.169
1056.05	0.173
1056.46	0.172
1056.88	0.158
1057.29	0.155
1057.71	0.184
1058.13	0.123
1058.54	0.147
1058.96	0.161
1059.37	0.192
1059.79	0.154
1060.21	0.171
1060.62	0.160
1061.04	0.139
1061.45	0.170
1061.87	0.151
1062.28	0.143
1062.70	0.172
1063.12	0.172
1063.53	0.190
1063.95	0.151
1064.36	0.157
1064.78	0.158
1065.19	0.212
1065.61	0.174
1066.02	0.178
1066.44	0.217
1066.85	0.206
1067.27	0.153
1067.68	0.181
1068.10	0.149
1068.51	0.230
1068.93	0.119
1069.35	0.250
1069.76	0.274
1070.17	0.226
1070.59	0.262
1071.00	0.396
1071.42	0.145
1071.83	0.274
1072.25	0.196
1072.66	0.349
1073.08	0.255
1073.49	0.187
1073.91	0.181
1074.32	0.202
1074.74	0.273
1075.15	0.280
1075.57	0.339
1075.98	0.286
1076.40	0.319
1076.81	0.229
1077.22	0.236
1077.64	0.425
1078.05	0.338
1078.47	0.455
1078.88	0.315
1079.30	0.420
1079.71	0.220
1080.12	0.581
1080.54	0.320
1080.95	0.578
1081.37	0.776
1081.78	0.733
1082.19	0.769
1082.61	0.317
1083.02	0.429
1083.44	-0.000
1083.85	0.365
1084.26	0.332
1084.68	1.375
1085.09	0.881
1085.50	0.683
1085.92	1.252
1086.33	0.312
1086.74	0.661
1087.16	2.033
1087.57	-0.000
1087.98	-0.000
1088.40	0.197
1088.81	0.596
1089.22	1.681
1089.64	0.659
1090.05	-0.000
1090.46	-0.000
1090.88	0.742
1091.29	-0.000
1091.70	1.470
1092.12	1.366
1092.53	-0.000
1092.94	0.580
1093.36	0.646
1093.77	0.595
1094.18	-0.000
1094.59	0.512
1095.01	0.628
1095.42	0.482
1095.83	2.076
1096.25	-0.000
1096.66	0.211
1097.07	0.378
1097.48	0.653
1097.90	-0.000
1098.31	0.829
1098.72	0.903
1099.13	0.708
>>>>>End Processed Spectral Data<<<<<
