SpectraSuite Data File
++++++++++++++++++++++++++++++++++++
Date: Tue Mar 29 12:13:32 CEST 2016
User: IPCE
Dark Spectrum Present: Yes
Reference Spectrum Present: Yes
Number of Sampled Component Spectra: 1
Spectrometers: HR+C0708
Integration Time (usec): 1000 (HR+C0708)
Spectra Averaged: 10 (HR+C0708)
Boxcar Smoothing: 0 (HR+C0708)
Correct for Electrical Dark: No (HR+C0708)
Strobe/Lamp Enabled: No (HR+C0708)
Correct for Detector Non-linearity: No (HR+C0708)
Correct for Stray Light: No (HR+C0708)
Number of Pixels in Processed Spectrum: 2048
>>>>>Begin Processed Spectral Data<<<<<
188.76	-0.000
189.23	-0.000
189.70	-0.000
190.17	-0.000
190.64	-0.000
191.12	-0.000
191.59	-0.000
192.06	-0.000
192.53	-0.000
193.01	-0.000
193.48	-0.000
193.95	-0.000
194.42	-0.000
194.90	-0.000
195.37	-0.000
195.84	0.910
196.31	-0.000
196.78	-0.000
197.26	-0.000
197.73	-0.000
198.20	-0.000
198.67	-0.000
199.14	-0.000
199.62	-0.000
200.09	-0.000
200.56	-0.000
201.03	1.245
201.50	1.464
201.97	1.719
202.45	1.169
202.92	-0.000
203.39	-0.000
203.86	1.179
204.33	-0.000
204.80	-0.000
205.28	-0.000
205.75	-0.000
206.22	1.722
206.69	2.685
207.16	-0.000
207.63	-0.000
208.11	-0.000
208.58	-0.000
209.05	-0.000
209.52	1.141
209.99	-0.000
210.46	-0.000
210.93	1.529
211.41	1.005
211.88	-0.000
212.35	1.683
212.82	1.074
213.29	-0.000
213.76	1.242
214.23	-0.000
214.70	-0.000
215.18	-0.000
215.65	-0.000
216.12	1.987
216.59	1.468
217.06	-0.000
217.53	-0.000
218.00	2.044
218.47	-0.000
218.94	1.630
219.41	1.408
219.89	-0.000
220.36	-0.000
220.83	-0.000
221.30	-0.000
221.77	1.925
222.24	-0.000
222.71	2.588
223.18	3.286
223.65	1.711
224.12	-0.000
224.59	1.763
225.06	1.687
225.54	-0.000
226.01	2.468
226.48	-0.000
226.95	1.990
227.42	-0.000
227.89	-0.000
228.36	1.846
228.83	-0.000
229.30	-0.000
229.77	2.016
230.24	2.379
230.71	-0.000
231.18	-0.000
231.65	2.503
232.12	2.504
232.59	2.889
233.06	2.479
233.53	2.901
234.00	-0.000
234.47	-0.000
234.94	-0.000
235.41	2.569
235.88	2.653
236.35	-0.000
236.82	-0.000
237.29	2.789
237.76	-0.000
238.23	-0.000
238.70	-0.000
239.17	2.871
239.64	-0.000
240.11	3.252
240.58	3.666
241.05	4.291
241.52	-0.000
241.99	-0.000
242.46	-0.000
242.93	-0.000
243.40	3.330
243.87	2.667
244.34	3.196
244.81	2.857
245.28	-0.000
245.75	2.788
246.22	2.966
246.69	-0.000
247.16	3.308
247.63	3.059
248.10	3.380
248.57	-0.000
249.04	-0.000
249.51	2.629
249.98	3.171
250.45	2.794
250.92	2.856
251.39	3.969
251.85	2.795
252.32	2.918
252.79	3.018
253.26	-0.000
253.73	-0.000
254.20	2.862
254.67	2.781
255.14	2.539
255.61	2.551
256.08	2.376
256.55	2.352
257.02	2.305
257.49	2.227
257.95	2.059
258.42	2.118
258.89	2.039
259.36	1.968
259.83	1.886
260.30	1.862
260.77	1.838
261.24	1.799
261.71	1.779
262.17	1.734
262.64	1.725
263.11	1.681
263.58	1.683
264.05	1.663
264.52	1.634
264.99	1.631
265.46	1.635
265.92	1.631
266.39	1.617
266.86	1.614
267.33	1.637
267.80	1.630
268.27	1.621
268.74	1.637
269.20	1.643
269.67	1.654
270.14	1.657
270.61	1.683
271.08	1.689
271.55	1.673
272.01	1.707
272.48	1.739
272.95	1.732
273.42	1.760
273.89	1.768
274.36	1.785
274.82	1.782
275.29	1.803
275.76	1.836
276.23	1.858
276.70	1.879
277.16	1.892
277.63	1.957
278.10	1.932
278.57	1.995
279.04	2.083
279.50	2.056
279.97	2.094
280.44	2.101
280.91	2.159
281.38	2.157
281.84	2.257
282.31	2.289
282.78	2.357
283.25	2.462
283.72	2.361
284.18	2.421
284.65	2.554
285.12	2.437
285.59	2.495
286.05	2.573
286.52	2.616
286.99	2.673
287.46	2.514
287.92	3.033
288.39	3.148
288.86	2.686
289.33	3.042
289.79	2.969
290.26	2.892
290.73	2.836
291.20	2.660
291.66	3.088
292.13	3.539
292.60	2.661
293.07	3.588
293.53	3.004
294.00	2.953
294.47	2.789
294.93	2.649
295.40	2.706
295.87	2.787
296.34	2.752
296.80	2.748
297.27	2.674
297.74	2.483
298.20	2.599
298.67	2.656
299.14	2.399
299.60	2.303
300.07	2.276
300.54	2.232
301.01	2.117
301.47	2.084
301.94	2.031
302.41	1.966
302.87	1.867
303.34	1.796
303.81	1.715
304.27	1.661
304.74	1.598
305.21	1.545
305.67	1.467
306.14	1.405
306.61	1.334
307.07	1.293
307.54	1.226
308.01	1.178
308.47	1.133
308.94	1.085
309.40	1.052
309.87	1.013
310.34	0.975
310.80	0.953
311.27	0.915
311.74	0.895
312.20	0.875
312.67	0.855
313.13	0.834
313.60	0.819
314.07	0.810
314.53	0.792
315.00	0.782
315.47	0.770
315.93	0.759
316.40	0.750
316.86	0.736
317.33	0.732
317.80	0.724
318.26	0.713
318.73	0.711
319.19	0.704
319.66	0.694
320.13	0.691
320.59	0.686
321.06	0.680
321.52	0.674
321.99	0.670
322.45	0.670
322.92	0.658
323.39	0.656
323.85	0.651
324.32	0.652
324.78	0.645
325.25	0.637
325.71	0.637
326.18	0.635
326.64	0.635
327.11	0.626
327.58	0.619
328.04	0.613
328.51	0.607
328.97	0.610
329.44	0.598
329.90	0.590
330.37	0.580
330.83	0.569
331.30	0.556
331.76	0.545
332.23	0.538
332.69	0.524
333.16	0.509
333.62	0.492
334.09	0.480
334.56	0.463
335.02	0.450
335.49	0.434
335.95	0.415
336.42	0.399
336.88	0.383
337.35	0.371
337.81	0.359
338.28	0.349
338.74	0.333
339.20	0.321
339.67	0.310
340.13	0.297
340.60	0.284
341.06	0.274
341.53	0.262
341.99	0.254
342.46	0.248
342.92	0.238
343.39	0.231
343.85	0.224
344.32	0.217
344.78	0.212
345.25	0.206
345.71	0.205
346.17	0.195
346.64	0.191
347.10	0.184
347.57	0.181
348.03	0.175
348.50	0.170
348.96	0.170
349.43	0.165
349.89	0.164
350.35	0.161
350.82	0.158
351.28	0.154
351.75	0.156
352.21	0.145
352.67	0.147
353.14	0.148
353.60	0.140
354.07	0.144
354.53	0.136
355.00	0.134
355.46	0.131
355.92	0.125
356.39	0.127
356.85	0.128
357.31	0.122
357.78	0.119
358.24	0.115
358.71	0.114
359.17	0.112
359.63	0.108
360.10	0.109
360.56	0.103
361.03	0.103
361.49	0.101
361.95	0.101
362.42	0.100
362.88	0.096
363.34	0.096
363.81	0.097
364.27	0.095
364.73	0.093
365.20	0.096
365.66	0.093
366.12	0.092
366.59	0.091
367.05	0.094
367.51	0.092
367.98	0.089
368.44	0.090
368.90	0.091
369.37	0.091
369.83	0.088
370.29	0.088
370.76	0.088
371.22	0.085
371.68	0.091
372.15	0.089
372.61	0.089
373.07	0.089
373.54	0.089
374.00	0.089
374.46	0.090
374.92	0.089
375.39	0.089
375.85	0.091
376.31	0.089
376.78	0.090
377.24	0.090
377.70	0.090
378.16	0.093
378.63	0.092
379.09	0.093
379.55	0.091
380.01	0.092
380.48	0.091
380.94	0.094
381.40	0.091
381.87	0.093
382.33	0.095
382.79	0.091
383.25	0.093
383.72	0.097
384.18	0.097
384.64	0.097
385.10	0.095
385.56	0.097
386.03	0.098
386.49	0.099
386.95	0.098
387.41	0.099
387.88	0.100
388.34	0.102
388.80	0.101
389.26	0.099
389.72	0.104
390.19	0.102
390.65	0.102
391.11	0.105
391.57	0.104
392.04	0.106
392.50	0.107
392.96	0.106
393.42	0.105
393.88	0.108
394.34	0.107
394.81	0.109
395.27	0.105
395.73	0.107
396.19	0.106
396.65	0.106
397.12	0.106
397.58	0.104
398.04	0.103
398.50	0.104
398.96	0.100
399.42	0.101
399.89	0.100
400.35	0.099
400.81	0.096
401.27	0.094
401.73	0.096
402.19	0.091
402.65	0.090
403.12	0.088
403.58	0.087
404.04	0.086
404.50	0.079
404.96	0.080
405.42	0.078
405.88	0.078
406.34	0.077
406.81	0.074
407.27	0.073
407.73	0.072
408.19	0.069
408.65	0.064
409.11	0.064
409.57	0.066
410.03	0.063
410.49	0.059
410.96	0.061
411.42	0.061
411.88	0.057
412.34	0.056
412.80	0.056
413.26	0.051
413.72	0.053
414.18	0.051
414.64	0.049
415.10	0.052
415.56	0.052
416.02	0.049
416.48	0.050
416.95	0.046
417.41	0.048
417.87	0.048
418.33	0.047
418.79	0.045
419.25	0.047
419.71	0.049
420.17	0.046
420.63	0.049
421.09	0.047
421.55	0.047
422.01	0.047
422.47	0.047
422.93	0.047
423.39	0.050
423.85	0.048
424.31	0.048
424.77	0.049
425.23	0.049
425.69	0.051
426.15	0.051
426.61	0.050
427.07	0.054
427.53	0.050
427.99	0.051
428.45	0.053
428.91	0.053
429.37	0.054
429.83	0.054
430.29	0.055
430.75	0.055
431.21	0.056
431.67	0.057
432.13	0.057
432.59	0.058
433.05	0.058
433.51	0.059
433.97	0.060
434.43	0.058
434.89	0.067
435.35	0.062
435.81	0.064
436.27	0.064
436.73	0.066
437.19	0.066
437.65	0.065
438.11	0.067
438.57	0.067
439.03	0.070
439.48	0.067
439.94	0.072
440.40	0.071
440.86	0.070
441.32	0.070
441.78	0.073
442.24	0.076
442.70	0.071
443.16	0.075
443.62	0.075
444.08	0.077
444.54	0.078
444.99	0.080
445.45	0.081
445.91	0.079
446.37	0.083
446.83	0.081
447.29	0.083
447.75	0.084
448.21	0.087
448.67	0.088
449.12	0.087
449.58	0.089
450.04	0.089
450.50	0.093
450.96	0.091
451.42	0.096
451.88	0.097
452.34	0.094
452.79	0.098
453.25	0.098
453.71	0.101
454.17	0.100
454.63	0.102
455.09	0.103
455.55	0.106
456.00	0.106
456.46	0.107
456.92	0.109
457.38	0.109
457.84	0.113
458.30	0.111
458.75	0.113
459.21	0.116
459.67	0.114
460.13	0.118
460.59	0.119
461.04	0.120
461.50	0.120
461.96	0.123
462.42	0.123
462.88	0.123
463.33	0.122
463.79	0.125
464.25	0.127
464.71	0.127
465.17	0.128
465.62	0.130
466.08	0.132
466.54	0.133
467.00	0.134
467.46	0.135
467.91	0.135
468.37	0.140
468.83	0.141
469.29	0.142
469.74	0.143
470.20	0.145
470.66	0.144
471.12	0.147
471.57	0.146
472.03	0.152
472.49	0.149
472.95	0.150
473.40	0.152
473.86	0.154
474.32	0.155
474.78	0.157
475.23	0.158
475.69	0.163
476.15	0.161
476.60	0.163
477.06	0.162
477.52	0.166
477.98	0.166
478.43	0.169
478.89	0.168
479.35	0.170
479.80	0.171
480.26	0.173
480.72	0.174
481.18	0.176
481.63	0.176
482.09	0.180
482.55	0.178
483.00	0.181
483.46	0.184
483.92	0.184
484.37	0.185
484.83	0.187
485.29	0.187
485.74	0.189
486.20	0.190
486.66	0.190
487.11	0.192
487.57	0.193
488.03	0.193
488.48	0.194
488.94	0.197
489.40	0.199
489.85	0.199
490.31	0.201
490.77	0.202
491.22	0.204
491.68	0.205
492.13	0.207
492.59	0.208
493.05	0.209
493.50	0.207
493.96	0.210
494.42	0.210
494.87	0.212
495.33	0.212
495.78	0.216
496.24	0.213
496.70	0.214
497.15	0.216
497.61	0.215
498.06	0.215
498.52	0.218
498.98	0.216
499.43	0.216
499.89	0.217
500.34	0.221
500.80	0.219
501.25	0.219
501.71	0.221
502.17	0.220
502.62	0.218
503.08	0.219
503.53	0.218
503.99	0.220
504.44	0.220
504.90	0.219
505.36	0.219
505.81	0.216
506.27	0.217
506.72	0.215
507.18	0.217
507.63	0.216
508.09	0.215
508.54	0.217
509.00	0.216
509.45	0.219
509.91	0.218
510.36	0.217
510.82	0.218
511.27	0.217
511.73	0.216
512.19	0.216
512.64	0.216
513.10	0.219
513.55	0.216
514.01	0.215
514.46	0.215
514.92	0.217
515.37	0.218
515.83	0.216
516.28	0.219
516.73	0.215
517.19	0.221
517.64	0.218
518.10	0.217
518.55	0.220
519.01	0.218
519.46	0.220
519.92	0.220
520.37	0.220
520.83	0.221
521.28	0.220
521.74	0.221
522.19	0.220
522.65	0.223
523.10	0.223
523.55	0.225
524.01	0.228
524.46	0.228
524.92	0.229
525.37	0.233
525.83	0.235
526.28	0.235
526.73	0.234
527.19	0.238
527.64	0.237
528.10	0.239
528.55	0.240
529.01	0.244
529.46	0.247
529.91	0.247
530.37	0.251
530.82	0.253
531.28	0.253
531.73	0.254
532.18	0.259
532.64	0.263
533.09	0.264
533.54	0.267
534.00	0.270
534.45	0.270
534.91	0.276
535.36	0.277
535.81	0.280
536.27	0.284
536.72	0.286
537.17	0.288
537.63	0.294
538.08	0.299
538.54	0.300
538.99	0.307
539.44	0.309
539.90	0.312
540.35	0.319
540.80	0.321
541.26	0.327
541.71	0.330
542.16	0.336
542.62	0.340
543.07	0.345
543.52	0.350
543.98	0.356
544.43	0.359
544.88	0.364
545.34	0.373
545.79	0.376
546.24	0.382
546.69	0.387
547.15	0.395
547.60	0.400
548.05	0.405
548.51	0.412
548.96	0.418
549.41	0.424
549.86	0.431
550.32	0.436
550.77	0.442
551.22	0.451
551.68	0.460
552.13	0.464
552.58	0.471
553.03	0.482
553.49	0.491
553.94	0.492
554.39	0.502
554.84	0.509
555.30	0.518
555.75	0.526
556.20	0.533
556.65	0.543
557.11	0.550
557.56	0.556
558.01	0.566
558.46	0.572
558.92	0.582
559.37	0.590
559.82	0.598
560.27	0.606
560.72	0.617
561.18	0.625
561.63	0.632
562.08	0.644
562.53	0.650
562.99	0.658
563.44	0.666
563.89	0.675
564.34	0.684
564.79	0.692
565.25	0.700
565.70	0.710
566.15	0.721
566.60	0.730
567.05	0.737
567.50	0.750
567.96	0.758
568.41	0.767
568.86	0.780
569.31	0.786
569.76	0.795
570.21	0.808
570.67	0.816
571.12	0.829
571.57	0.839
572.02	0.848
572.47	0.861
572.92	0.872
573.37	0.880
573.83	0.892
574.28	0.908
574.73	0.917
575.18	0.930
575.63	0.940
576.08	0.954
576.53	0.972
576.98	0.989
577.44	0.995
577.89	1.011
578.34	1.025
578.79	1.041
579.24	1.052
579.69	1.073
580.14	1.084
580.59	1.101
581.04	1.114
581.49	1.133
581.95	1.154
582.40	1.166
582.85	1.193
583.30	1.210
583.75	1.227
584.20	1.251
584.65	1.265
585.10	1.288
585.55	1.315
586.00	1.334
586.45	1.346
586.90	1.364
587.35	1.397
587.80	1.415
588.25	1.445
588.71	1.469
589.16	1.483
589.61	1.509
590.06	1.546
590.51	1.562
590.96	1.586
591.41	1.616
591.86	1.637
592.31	1.668
592.76	1.696
593.21	1.720
593.66	1.752
594.11	1.781
594.56	1.815
595.01	1.829
595.46	1.858
595.91	1.890
596.36	1.945
596.81	1.944
597.26	1.958
597.71	2.013
598.16	2.077
598.61	2.073
599.06	2.118
599.51	2.131
599.96	2.131
600.41	2.163
600.86	2.164
601.31	2.206
601.76	2.266
602.21	2.333
602.65	2.324
603.10	2.348
603.55	2.308
604.00	2.403
604.45	2.412
604.90	2.406
605.35	2.433
605.80	2.555
606.25	2.452
606.70	2.444
607.15	2.457
607.60	2.558
608.05	2.452
608.50	2.543
608.95	2.552
609.39	2.642
609.84	2.624
610.29	2.728
610.74	2.750
611.19	2.729
611.64	2.664
612.09	2.744
612.54	2.668
612.99	2.649
613.44	2.646
613.88	2.701
614.33	2.809
614.78	2.676
615.23	2.674
615.68	2.612
616.13	2.668
616.58	2.754
617.03	2.653
617.47	2.905
617.92	2.706
618.37	2.780
618.82	2.651
619.27	2.767
619.72	2.897
620.17	2.834
620.61	2.802
621.06	2.846
621.51	2.692
621.96	2.770
622.41	2.749
622.86	2.716
623.30	2.723
623.75	2.739
624.20	2.818
624.65	2.698
625.10	2.823
625.54	2.761
625.99	2.879
626.44	2.759
626.89	2.695
627.34	2.823
627.78	2.727
628.23	2.808
628.68	2.832
629.13	2.991
629.58	2.831
630.02	3.094
630.47	2.902
630.92	2.752
631.37	2.876
631.81	2.773
632.26	3.209
632.71	2.872
633.16	2.970
633.61	2.737
634.05	3.007
634.50	3.071
634.95	3.146
635.40	2.766
635.84	2.907
636.29	2.861
636.74	2.913
637.18	3.130
637.63	3.319
638.08	2.909
638.53	3.174
638.97	3.333
639.42	2.923
639.87	2.970
640.32	2.848
640.76	3.171
641.21	3.035
641.66	2.890
642.10	2.966
642.55	3.163
643.00	2.926
643.44	3.119
643.89	3.038
644.34	3.153
644.79	3.237
645.23	2.974
645.68	3.076
646.13	3.115
646.57	2.924
647.02	2.954
647.47	4.820
647.91	2.870
648.36	3.458
648.81	3.060
649.25	3.306
649.70	3.056
650.15	3.218
650.59	3.220
651.04	3.069
651.48	3.176
651.93	3.031
652.38	2.969
652.82	3.011
653.27	2.935
653.72	2.986
654.16	2.937
654.61	3.178
655.06	3.401
655.50	3.091
655.95	3.206
656.39	3.150
656.84	3.190
657.29	2.952
657.73	2.742
658.18	3.131
658.62	3.064
659.07	3.060
659.52	2.984
659.96	3.115
660.41	2.883
660.85	3.098
661.30	2.847
661.74	3.060
662.19	2.978
662.64	3.301
663.08	3.111
663.53	2.997
663.97	3.056
664.42	2.927
664.86	3.033
665.31	3.013
665.75	2.842
666.20	3.103
666.65	3.209
667.09	3.465
667.54	3.170
667.98	3.182
668.43	3.341
668.87	3.417
669.32	2.976
669.76	2.916
670.21	2.937
670.65	3.168
671.10	2.843
671.54	2.958
671.99	2.853
672.43	2.861
672.88	2.892
673.32	2.995
673.77	2.919
674.21	2.772
674.66	2.899
675.10	2.735
675.55	3.029
675.99	2.753
676.44	3.147
676.88	2.918
677.33	2.953
677.77	2.809
678.22	2.810
678.66	2.795
679.11	2.804
679.55	2.822
679.99	2.740
680.44	2.926
680.88	2.854
681.33	2.736
681.77	2.609
682.22	2.602
682.66	2.603
683.11	2.616
683.55	2.584
683.99	2.617
684.44	2.598
684.88	2.385
685.33	2.382
685.77	2.350
686.21	2.284
686.66	2.195
687.10	2.127
687.55	2.058
687.99	1.962
688.44	1.891
688.88	1.820
689.32	1.753
689.77	1.683
690.21	1.610
690.65	1.542
691.10	1.479
691.54	1.409
691.99	1.348
692.43	1.285
692.87	1.215
693.32	1.176
693.76	1.116
694.20	1.063
694.65	1.017
695.09	0.969
695.53	0.931
695.98	0.885
696.42	0.844
696.86	0.806
697.31	0.770
697.75	0.731
698.19	0.700
698.64	0.672
699.08	0.635
699.52	0.610
699.97	0.580
700.41	0.557
700.85	0.530
701.30	0.508
701.74	0.485
702.18	0.460
702.63	0.442
703.07	0.421
703.51	0.404
703.96	0.387
704.40	0.373
704.84	0.357
705.28	0.338
705.73	0.325
706.17	0.313
706.61	0.298
707.06	0.289
707.50	0.277
707.94	0.264
708.38	0.253
708.83	0.242
709.27	0.234
709.71	0.226
710.15	0.216
710.60	0.208
711.04	0.199
711.48	0.193
711.92	0.186
712.37	0.179
712.81	0.169
713.25	0.166
713.69	0.159
714.13	0.154
714.58	0.149
715.02	0.144
715.46	0.141
715.90	0.137
716.35	0.131
716.79	0.127
717.23	0.123
717.67	0.117
718.11	0.112
718.56	0.113
719.00	0.109
719.44	0.105
719.88	0.099
720.32	0.100
720.76	0.096
721.21	0.095
721.65	0.090
722.09	0.088
722.53	0.087
722.97	0.085
723.41	0.081
723.86	0.080
724.30	0.078
724.74	0.074
725.18	0.076
725.62	0.073
726.06	0.072
726.50	0.070
726.95	0.066
727.39	0.068
727.83	0.068
728.27	0.066
728.71	0.063
729.15	0.066
729.59	0.060
730.03	0.059
730.48	0.060
730.92	0.057
731.36	0.058
731.80	0.057
732.24	0.054
732.68	0.055
733.12	0.052
733.56	0.052
734.00	0.051
734.44	0.052
734.89	0.051
735.33	0.051
735.77	0.049
736.21	0.048
736.65	0.048
737.09	0.047
737.53	0.047
737.97	0.047
738.41	0.048
738.85	0.047
739.29	0.045
739.73	0.045
740.17	0.044
740.61	0.045
741.05	0.045
741.49	0.042
741.93	0.043
742.37	0.039
742.81	0.043
743.26	0.041
743.70	0.042
744.14	0.040
744.58	0.038
745.02	0.040
745.46	0.040
745.90	0.042
746.34	0.038
746.78	0.038
747.22	0.038
747.66	0.039
748.10	0.038
748.54	0.035
748.98	0.035
749.42	0.037
749.86	0.038
750.29	0.034
750.73	0.038
751.17	0.035
751.61	0.037
752.05	0.037
752.49	0.037
752.93	0.033
753.37	0.035
753.81	0.036
754.25	0.034
754.69	0.033
755.13	0.034
755.57	0.030
756.01	0.033
756.45	0.036
756.89	0.033
757.33	0.034
757.77	0.031
758.21	0.032
758.64	0.031
759.08	0.034
759.52	0.032
759.96	0.031
760.40	0.031
760.84	0.029
761.28	0.030
761.72	0.028
762.16	0.031
762.60	0.030
763.03	0.028
763.47	0.028
763.91	0.031
764.35	0.030
764.79	0.030
765.23	0.030
765.67	0.027
766.11	0.029
766.54	0.029
766.98	0.027
767.42	0.026
767.86	0.028
768.30	0.027
768.74	0.028
769.17	0.030
769.61	0.027
770.05	0.025
770.49	0.026
770.93	0.027
771.37	0.026
771.80	0.023
772.24	0.026
772.68	0.028
773.12	0.027
773.56	0.027
774.00	0.023
774.43	0.025
774.87	0.026
775.31	0.028
775.75	0.027
776.19	0.027
776.62	0.026
777.06	0.024
777.50	0.026
777.94	0.028
778.37	0.027
778.81	0.028
779.25	0.027
779.69	0.024
780.13	0.027
780.56	0.027
781.00	0.026
781.44	0.028
781.88	0.029
782.31	0.027
782.75	0.027
783.19	0.025
783.63	0.027
784.06	0.029
784.50	0.025
784.94	0.027
785.37	0.029
785.81	0.026
786.25	0.022
786.69	0.027
787.12	0.022
787.56	0.022
788.00	0.024
788.43	0.024
788.87	0.026
789.31	0.027
789.75	0.026
790.18	0.028
790.62	0.023
791.06	0.024
791.49	0.027
791.93	0.026
792.37	0.024
792.80	0.026
793.24	0.027
793.68	0.025
794.11	0.024
794.55	0.025
794.99	0.028
795.42	0.026
795.86	0.024
796.30	0.025
796.73	0.024
797.17	0.024
797.61	0.026
798.04	0.025
798.48	0.027
798.91	0.026
799.35	0.023
799.79	0.022
800.22	0.029
800.66	0.027
801.10	0.025
801.53	0.023
801.97	0.024
802.40	0.023
802.84	0.028
803.28	0.027
803.71	0.026
804.15	0.025
804.58	0.025
805.02	0.028
805.46	0.028
805.89	0.024
806.33	0.024
806.76	0.027
807.20	0.024
807.63	0.023
808.07	0.025
808.51	0.026
808.94	0.022
809.38	0.026
809.81	0.027
810.25	0.029
810.68	0.031
811.12	0.026
811.55	0.026
811.99	0.023
812.42	0.028
812.86	0.026
813.29	0.024
813.73	0.025
814.17	0.028
814.60	0.028
815.04	0.023
815.47	0.026
815.91	0.023
816.34	0.027
816.78	0.028
817.21	0.027
817.65	0.026
818.08	0.027
818.52	0.026
818.95	0.027
819.39	0.024
819.82	0.030
820.25	0.029
820.69	0.026
821.12	0.028
821.56	0.027
821.99	0.029
822.43	0.030
822.86	0.024
823.30	0.030
823.73	0.022
824.17	0.027
824.60	0.029
825.04	0.026
825.47	0.025
825.90	0.030
826.34	0.027
826.77	0.026
827.21	0.024
827.64	0.027
828.08	0.022
828.51	0.025
828.94	0.027
829.38	0.034
829.81	0.024
830.25	0.029
830.68	0.031
831.11	0.031
831.55	0.031
831.98	0.027
832.42	0.028
832.85	0.033
833.28	0.029
833.72	0.032
834.15	0.031
834.58	0.035
835.02	0.032
835.45	0.033
835.88	0.032
836.32	0.033
836.75	0.034
837.19	0.029
837.62	0.029
838.05	0.029
838.49	0.029
838.92	0.033
839.35	0.027
839.79	0.032
840.22	0.031
840.65	0.035
841.09	0.033
841.52	0.037
841.95	0.037
842.39	0.033
842.82	0.037
843.25	0.030
843.68	0.035
844.12	0.032
844.55	0.033
844.98	0.036
845.42	0.038
845.85	0.030
846.28	0.036
846.71	0.035
847.15	0.032
847.58	0.035
848.01	0.037
848.45	0.036
848.88	0.037
849.31	0.033
849.74	0.036
850.18	0.035
850.61	0.034
851.04	0.040
851.47	0.040
851.91	0.036
852.34	0.035
852.77	0.040
853.20	0.039
853.64	0.038
854.07	0.037
854.50	0.040
854.93	0.037
855.36	0.037
855.80	0.033
856.23	0.036
856.66	0.040
857.09	0.036
857.52	0.039
857.96	0.034
858.39	0.034
858.82	0.041
859.25	0.040
859.68	0.032
860.12	0.046
860.55	0.044
860.98	0.036
861.41	0.035
861.84	0.041
862.27	0.039
862.71	0.038
863.14	0.037
863.57	0.035
864.00	0.040
864.43	0.044
864.86	0.040
865.30	0.038
865.73	0.039
866.16	0.041
866.59	0.037
867.02	0.039
867.45	0.046
867.88	0.044
868.31	0.043
868.75	0.043
869.18	0.042
869.61	0.041
870.04	0.039
870.47	0.037
870.90	0.040
871.33	0.044
871.76	0.043
872.19	0.037
872.62	0.047
873.06	0.047
873.49	0.051
873.92	0.044
874.35	0.040
874.78	0.044
875.21	0.042
875.64	0.043
876.07	0.047
876.50	0.046
876.93	0.047
877.36	0.047
877.79	0.041
878.22	0.046
878.65	0.045
879.08	0.042
879.51	0.050
879.94	0.049
880.37	0.047
880.80	0.044
881.23	0.045
881.67	0.047
882.10	0.045
882.53	0.052
882.96	0.052
883.39	0.052
883.82	0.047
884.25	0.051
884.68	0.048
885.11	0.043
885.54	0.049
885.97	0.049
886.39	0.049
886.82	0.051
887.25	0.049
887.68	0.061
888.11	0.048
888.54	0.053
888.97	0.053
889.40	0.055
889.83	0.051
890.26	0.054
890.69	0.057
891.12	0.051
891.55	0.051
891.98	0.049
892.41	0.053
892.84	0.054
893.27	0.052
893.70	0.056
894.13	0.052
894.56	0.052
894.98	0.056
895.41	0.053
895.84	0.052
896.27	0.056
896.70	0.058
897.13	0.053
897.56	0.057
897.99	0.054
898.42	0.057
898.85	0.055
899.27	0.054
899.70	0.058
900.13	0.058
900.56	0.053
900.99	0.054
901.42	0.059
901.85	0.061
902.28	0.059
902.70	0.053
903.13	0.053
903.56	0.056
903.99	0.063
904.42	0.064
904.85	0.056
905.27	0.059
905.70	0.056
906.13	0.056
906.56	0.057
906.99	0.060
907.42	0.060
907.84	0.059
908.27	0.055
908.70	0.061
909.13	0.054
909.56	0.054
909.98	0.060
910.41	0.058
910.84	0.054
911.27	0.055
911.70	0.055
912.12	0.057
912.55	0.059
912.98	0.055
913.41	0.058
913.84	0.055
914.26	0.055
914.69	0.057
915.12	0.053
915.55	0.051
915.97	0.054
916.40	0.057
916.83	0.055
917.26	0.059
917.68	0.054
918.11	0.053
918.54	0.050
918.97	0.055
919.39	0.053
919.82	0.057
920.25	0.058
920.67	0.053
921.10	0.059
921.53	0.061
921.96	0.055
922.38	0.055
922.81	0.056
923.24	0.060
923.66	0.058
924.09	0.059
924.52	0.058
924.94	0.056
925.37	0.057
925.80	0.059
926.22	0.060
926.65	0.057
927.08	0.057
927.50	0.060
927.93	0.059
928.36	0.061
928.78	0.065
929.21	0.063
929.64	0.061
930.06	0.068
930.49	0.066
930.92	0.065
931.34	0.070
931.77	0.065
932.20	0.071
932.62	0.070
933.05	0.071
933.47	0.069
933.90	0.073
934.33	0.072
934.75	0.071
935.18	0.077
935.61	0.078
936.03	0.077
936.46	0.078
936.88	0.083
937.31	0.086
937.73	0.082
938.16	0.085
938.59	0.089
939.01	0.088
939.44	0.088
939.86	0.095
940.29	0.096
940.71	0.092
941.14	0.092
941.57	0.094
941.99	0.098
942.42	0.099
942.84	0.102
943.27	0.099
943.69	0.097
944.12	0.114
944.54	0.099
944.97	0.113
945.39	0.109
945.82	0.116
946.24	0.105
946.67	0.110
947.09	0.120
947.52	0.114
947.94	0.118
948.37	0.119
948.79	0.129
949.22	0.126
949.64	0.123
950.07	0.125
950.49	0.126
950.92	0.127
951.34	0.127
951.77	0.134
952.19	0.129
952.62	0.139
953.04	0.138
953.47	0.151
953.89	0.143
954.32	0.150
954.74	0.145
955.17	0.152
955.59	0.150
956.01	0.154
956.44	0.153
956.86	0.156
957.29	0.162
957.71	0.157
958.14	0.160
958.56	0.162
958.98	0.167
959.41	0.163
959.83	0.164
960.26	0.168
960.68	0.170
961.10	0.166
961.53	0.173
961.95	0.171
962.38	0.175
962.80	0.176
963.22	0.171
963.65	0.177
964.07	0.172
964.50	0.178
964.92	0.180
965.34	0.180
965.77	0.181
966.19	0.181
966.61	0.178
967.04	0.182
967.46	0.183
967.88	0.189
968.31	0.182
968.73	0.184
969.15	0.192
969.58	0.186
970.00	0.187
970.42	0.184
970.85	0.186
971.27	0.185
971.69	0.190
972.12	0.190
972.54	0.192
972.96	0.192
973.39	0.186
973.81	0.188
974.23	0.192
974.65	0.190
975.08	0.189
975.50	0.193
975.92	0.191
976.35	0.196
976.77	0.192
977.19	0.190
977.61	0.195
978.04	0.197
978.46	0.200
978.88	0.192
979.30	0.203
979.73	0.195
980.15	0.199
980.57	0.200
980.99	0.204
981.42	0.195
981.84	0.207
982.26	0.204
982.68	0.200
983.11	0.197
983.53	0.202
983.95	0.198
984.37	0.204
984.79	0.202
985.22	0.195
985.64	0.199
986.06	0.191
986.48	0.199
986.90	0.199
987.33	0.195
987.75	0.190
988.17	0.194
988.59	0.197
989.01	0.196
989.43	0.198
989.86	0.194
990.28	0.198
990.70	0.197
991.12	0.195
991.54	0.199
991.96	0.197
992.39	0.190
992.81	0.193
993.23	0.194
993.65	0.195
994.07	0.185
994.49	0.194
994.91	0.187
995.34	0.188
995.76	0.186
996.18	0.191
996.60	0.190
997.02	0.189
997.44	0.191
997.86	0.186
998.28	0.182
998.70	0.189
999.12	0.189
999.55	0.187
999.97	0.186
1000.39	0.191
1000.81	0.186
1001.23	0.189
1001.65	0.185
1002.07	0.192
1002.49	0.185
1002.91	0.187
1003.33	0.186
1003.75	0.182
1004.17	0.182
1004.59	0.190
1005.01	0.190
1005.43	0.190
1005.85	0.190
1006.28	0.179
1006.70	0.184
1007.12	0.181
1007.54	0.172
1007.96	0.181
1008.38	0.186
1008.80	0.182
1009.22	0.173
1009.64	0.175
1010.06	0.173
1010.48	0.178
1010.90	0.174
1011.32	0.179
1011.74	0.171
1012.16	0.175
1012.58	0.167
1013.00	0.172
1013.42	0.173
1013.84	0.178
1014.26	0.169
1014.67	0.166
1015.09	0.164
1015.51	0.170
1015.93	0.165
1016.35	0.163
1016.77	0.168
1017.19	0.150
1017.61	0.163
1018.03	0.173
1018.45	0.160
1018.87	0.163
1019.29	0.153
1019.71	0.153
1020.13	0.163
1020.55	0.171
1020.97	0.154
1021.38	0.165
1021.80	0.157
1022.22	0.152
1022.64	0.159
1023.06	0.165
1023.48	0.149
1023.90	0.143
1024.32	0.157
1024.74	0.162
1025.15	0.156
1025.57	0.156
1025.99	0.160
1026.41	0.149
1026.83	0.156
1027.25	0.148
1027.67	0.152
1028.08	0.141
1028.50	0.144
1028.92	0.146
1029.34	0.136
1029.76	0.146
1030.18	0.160
1030.60	0.151
1031.01	0.149
1031.43	0.141
1031.85	0.146
1032.27	0.137
1032.69	0.137
1033.10	0.144
1033.52	0.149
1033.94	0.146
1034.36	0.149
1034.78	0.145
1035.19	0.145
1035.61	0.136
1036.03	0.139
1036.45	0.125
1036.87	0.137
1037.28	0.147
1037.70	0.136
1038.12	0.132
1038.54	0.150
1038.95	0.136
1039.37	0.136
1039.79	0.145
1040.21	0.144
1040.62	0.166
1041.04	0.149
1041.46	0.146
1041.88	0.155
1042.29	0.148
1042.71	0.138
1043.13	0.156
1043.55	0.144
1043.96	0.165
1044.38	0.134
1044.80	0.129
1045.21	0.123
1045.63	0.138
1046.05	0.134
1046.47	0.138
1046.88	0.139
1047.30	0.122
1047.72	0.127
1048.13	0.110
1048.55	0.132
1048.97	0.139
1049.38	0.146
1049.80	0.111
1050.22	0.143
1050.63	0.148
1051.05	0.161
1051.47	0.123
1051.88	0.161
1052.30	0.159
1052.72	0.132
1053.13	0.167
1053.55	0.142
1053.97	0.162
1054.38	0.167
1054.80	0.185
1055.21	0.147
1055.63	0.155
1056.05	0.180
1056.46	0.157
1056.88	0.175
1057.29	0.163
1057.71	0.193
1058.13	0.218
1058.54	0.195
1058.96	0.168
1059.37	0.169
1059.79	0.210
1060.21	0.170
1060.62	0.257
1061.04	0.203
1061.45	0.193
1061.87	0.210
1062.28	0.198
1062.70	0.214
1063.12	0.207
1063.53	0.283
1063.95	0.248
1064.36	0.299
1064.78	0.239
1065.19	0.163
1065.61	0.225
1066.02	0.244
1066.44	0.376
1066.85	0.234
1067.27	0.281
1067.68	0.252
1068.10	0.334
1068.51	0.252
1068.93	0.352
1069.35	0.330
1069.76	0.483
1070.17	0.450
1070.59	0.255
1071.00	0.338
1071.42	0.320
1071.83	0.354
1072.25	0.365
1072.66	0.609
1073.08	0.802
1073.49	0.570
1073.91	0.538
1074.32	0.396
1074.74	0.612
1075.15	0.452
1075.57	0.605
1075.98	0.607
1076.40	0.361
1076.81	0.314
1077.22	0.488
1077.64	0.739
1078.05	0.869
1078.47	0.609
1078.88	0.565
1079.30	0.315
1079.71	-0.000
1080.12	-0.000
1080.54	0.524
1080.95	-0.000
1081.37	-0.000
1081.78	0.626
1082.19	1.473
1082.61	-0.000
1083.02	-0.000
1083.44	-0.000
1083.85	1.253
1084.26	-0.000
1084.68	-0.000
1085.09	-0.000
1085.50	-0.000
1085.92	-0.000
1086.33	-0.000
1086.74	-0.000
1087.16	-0.000
1087.57	-0.000
1087.98	2.290
1088.40	-0.000
1088.81	0.541
1089.22	-0.000
1089.64	-0.000
1090.05	-0.000
1090.46	-0.000
1090.88	-0.000
1091.29	-0.000
1091.70	-0.000
1092.12	-0.000
1092.53	-0.000
1092.94	-0.000
1093.36	-0.000
1093.77	-0.000
1094.18	-0.000
1094.59	2.334
1095.01	-0.000
1095.42	-0.000
1095.83	-0.000
1096.25	-0.000
1096.66	-0.000
1097.07	-0.000
1097.48	-0.000
1097.90	-0.000
1098.31	-0.000
1098.72	-0.000
1099.13	-0.000
>>>>>End Processed Spectral Data<<<<<
